File: powder_X-ray_diffraction/variable-temperature_experiments/NaTaO2F2/raw_data/100°C.XY
! Initial file:   D:\ZAKARY_OUAIL\MA_THESE\Deuxième_année_de_thèse\DRX\Manips_DRX\1st_NaTaO2F2_XRK900\NaTaO2F2-Lent_100°C.xrdml
! Initial format:  58
! WAVE (A):      1.54060     1.54060     1.00000
! REM : data have been multiplied by     1.0000
! X_data : 2 Theta (deg.)
! Y_data : Intensity (arb. units)
!     X         Y
!--------------------------------------------------------------------------------
    10.0116     7149
    10.3136     6840
    10.6156     6629
    10.9176     7383
    11.2196    12543
    11.5216     6553
    11.8236     6424
    12.1256     6370
    12.4276     6123
    12.7296     5930
    13.0316     5914
    13.3336     5805
    13.6356     5683
    13.9376     5378
    14.2395     5408
    14.5415     5271
    14.8435     5200
    15.1455     5096
    15.4475     5151
    15.7495     4998
    16.0515     4993
    16.3535     5063
    16.6555     4971
    16.9575     4735
    17.2595     4959
    17.5615     4764
    17.8635     4711
    18.1655     4523
    18.4675     4449
    18.7695     4448
    19.0715     4732
    19.3735     4832
    19.6755    63354
    19.9775     4957
    20.2795     4694
    20.5815     4306
    20.8835     4183
    21.1855     4093
    21.4875     4079
    21.7895     4126
    22.0915     4091
    22.3935    19338
    22.6954     4013
    22.9974     3881
    23.2994     3848
    23.6014     4072
    23.9034     4306
    24.2054    43194
    24.5074    28569
    24.8094     3787
    25.1114     3910
    25.4134     3677
    25.7154     3598
    26.0174     3713
    26.3194     3572
    26.6214     3530
    26.9234     3607
    27.2254     3619
    27.5274     4455
    27.8294    57113
    28.1314     3847
    28.4334     3763
    28.7354     3469
    29.0374     3714
    29.3394    24703
    29.6414     4182
    29.9434     3409
    30.2454     3357
    30.5474     3207
    30.8494     3119
    31.1514     3177
    31.4533     3084
    31.7553     3135
    32.0573     3185
    32.3593     3170
    32.6613     3829
    32.9633     4385
    33.2653    29183
    33.5673     4208
    33.8693    30916
    34.1713     3261
    34.4733     3176
    34.7753    10369
    35.0773     3859
    35.3793     2931
    35.6813     2846
    35.9833     2919
    36.2853     2997
    36.5873     3243
    36.8893     3053
    37.1913     2938
    37.4933     7221
    37.7953     3367
    38.0973     2753
    38.3993     2847
    38.7013     2780
    39.0033     2757
    39.3053     2701
    39.6073     2795
    39.9092     3266
    40.2112     4963
    40.5132     3964
    40.8152     2988
    41.1172     7703
    41.4192     7449
    41.7212     2758
    42.0232     2715
    42.3252     2698
    42.6272     2576
    42.9292     2753
    43.2312     2600
    43.5332     3092
    43.8352     2602
    44.1372     2751
    44.4392     2901
    44.7412     4029
    45.0432     2639
    45.3452     2525
    45.6472     3865
    45.9492     2875
    46.2512     3054
    46.5532     2937
    46.8552     2654
    47.1572     4335
    47.4592     3037
    47.7612     4410
    48.0632     6392
    48.3652     4942
    48.6671     4882
    48.9691     8065
    49.2711     2814
    49.5731     3345
    49.8751     3454
    50.1771    12708
    50.4791     3436
    50.7811     6902
    51.0831     2808
    51.3851     3014
    51.6871     5419
    51.9891     2770
    52.2911     2833
    52.5931    10801
    52.8951     2992
    53.1971     4233
    53.4991     3198
    53.8011     2886
    54.1031     2539
    54.4051     2846
    54.7071     2631
    55.0091     2628
    55.3111     2851
    55.6131     7368
    55.9151     3501
    56.2171     3106
    56.5191     8841
    56.8211     2928
    57.1231     4537
    57.4250     9462
    57.7270     2988
    58.0290     4730
    58.3310     3117
    58.6330     4760
    58.9350     8024
    59.2370     9238
    59.5390     3226
    59.8410     8164
    60.1430     5124
    60.4450     2758
    60.7470     8457
    61.0490     7297
    61.3510     3589
    61.6530     2623
    61.9550     2544
    62.2570     2477
    62.5590     2473
    62.8610     2362
    63.1630     2429
    63.4650     2535
    63.7670     3481
    64.0690     2565
    64.3710     3509
    64.6730     2500
    64.9750     2425
    65.2770     2604
    65.5790     2439
    65.8810     2342
    66.1829     2287
    66.4849     2382
    66.7869     2549
    67.0889     2328
    67.3909     2312
    67.6929     2381
    67.9949     2772
    68.2969     2789
    68.5989     2722
    68.9009     2865
    69.2029     2590
    69.5049     3355
    69.8069     3302
    70.1089     4853
    70.4109     4068
    70.7129     4039
    71.0149     3418
    71.3169     5803
    71.6189     2756
    71.9209     3567
    72.2229     2932
    72.5249     2540
    72.8269     3525
    73.1289     2630
    73.4309     3351
    73.7329     3308
    74.0349     2905
    74.3369     3911
    74.6388     2335
    74.9408     2265
    75.2428     2322
    75.5448     2249
    75.8468     2454
    76.1488     2757
    76.4508     4698
    76.7528     2806
    77.0548     2873
    77.3568     3291
    77.6588     3115
    77.9608     2524
    78.2628     2778
    78.5648     3383
    78.8668     3531
    79.1688     4028
    79.4708     3304
    79.7728     3471
    80.0748     2867
    80.3768     6798
    80.6788     5030
    80.9808     3513
    81.2828     3631
    81.5848     2741
    81.8868     2388
    82.1888     4055
    82.4908     3501
    82.7928     2676
    83.0947     2536
    83.3967     2520
    83.6987     2683
    84.0007     2612
    84.3027     2417
    84.6047     2407
    84.9067     2348
    85.2087     2412
    85.5107     2989
    85.8127     3623
    86.1147     2755
    86.4167     2424
    86.7187     2523
    87.0207     2999
    87.3227     3268
    87.6247     3016
    87.9267     3379
    88.2287     3079
    88.5307     3178
    88.8327     2868
    89.1347     3044
    89.4367     2857
    89.7387     2637
    90.0407     2661
    90.3427     3253
    90.6447     3221
    90.9467     3264
    91.2487     3214
    91.5507     2930
    91.8526     3380
    92.1546     2919
    92.4566     2543
    92.7586     2927
    93.0606     3094
    93.3626     2642
    93.6646     2416
    93.9666     2299
    94.2686     3024
    94.5706     2803
    94.8726     3421
    95.1746     2831
    95.4766     2328
    95.7786     2366
    96.0806     2290
    96.3826     2372
    96.6846     2526
    96.9866     3431
    97.2886     3444
    97.5906     3243
    97.8926     2943
    98.1946     2659
    98.4966     2434
    98.7986     3759
    99.1006     4540
    99.4026     3544
    99.7046     3463
    99.9934     3573