File: powder_X-ray_diffraction/variable-temperature_experiments/NaTaO2F2/raw_data/120°C.XY
! Initial file:   D:\ZAKARY_OUAIL\MA_THESE\Deuxième_année_de_thèse\DRX\Manips_DRX\1st_NaTaO2F2_XRK900\NaTaO2F2-Lent_120°C.xrdml
! Initial format:  58
! WAVE (A):      1.54060     1.54060     1.00000
! REM : data have been multiplied by     1.0000
! X_data : 2 Theta (deg.)
! Y_data : Intensity (arb. units)
!     X         Y
!--------------------------------------------------------------------------------
    10.0116     7127
    10.3136     6942
    10.6156     6763
    10.9176     7109
    11.2196    12106
    11.5216     6373
    11.8236     6289
    12.1256     6132
    12.4276     5962
    12.7296     5922
    13.0316     5743
    13.3336     5553
    13.6356     5491
    13.9376     5353
    14.2395     5259
    14.5415     5179
    14.8435     5144
    15.1455     5170
    15.4475     4971
    15.7495     4859
    16.0515     5055
    16.3535     5099
    16.6555     4889
    16.9575     4831
    17.2595     4926
    17.5615     4591
    17.8635     4501
    18.1655     4457
    18.4675     4410
    18.7695     4323
    19.0715     4632
    19.3735     4780
    19.6755    79490
    19.9775     4907
    20.2795     4562
    20.5815     4230
    20.8835     4281
    21.1855     3972
    21.4875     3929
    21.7895     4052
    22.0915     4052
    22.3935    18496
    22.6954     3980
    22.9974     3786
    23.2994     3781
    23.6014     3896
    23.9034     4191
    24.2054    43527
    24.5074    24639
    24.8094     3668
    25.1114     3771
    25.4134     3757
    25.7154     3532
    26.0174     3737
    26.3194     3626
    26.6214     3419
    26.9234     3675
    27.2254     3695
    27.5274     4481
    27.8294    53721
    28.1314     3737
    28.4334     3765
    28.7354     3594
    29.0374     3738
    29.3394    24375
    29.6414     4084
    29.9434     3372
    30.2454     3266
    30.5474     3251
    30.8494     3198
    31.1514     3214
    31.4533     3109
    31.7553     3010
    32.0573     3078
    32.3593     3283
    32.6613     3807
    32.9633     3941
    33.2653    32369
    33.5673     4372
    33.8693    27288
    34.1713     3273
    34.4733     3191
    34.7753     8809
    35.0773     3433
    35.3793     2979
    35.6813     2880
    35.9833     2867
    36.2853     2933
    36.5873     3344
    36.8893     3186
    37.1913     3070
    37.4933     6757
    37.7953     3471
    38.0973     2721
    38.3993     2849
    38.7013     2804
    39.0033     2792
    39.3053     2676
    39.6073     2963
    39.9092     3259
    40.2112     4346
    40.5132     3755
    40.8152     2971
    41.1172     8539
    41.4192     7913
    41.7212     2800
    42.0232     2646
    42.3252     2594
    42.6272     2588
    42.9292     2779
    43.2312     2714
    43.5332     3049
    43.8352     2641
    44.1372     2823
    44.4392     2754
    44.7412     4218
    45.0432     2731
    45.3452     2604
    45.6472     4706
    45.9492     2841
    46.2512     3040
    46.5532     2939
    46.8552     2674
    47.1572     5995
    47.4592     3075
    47.7612     5237
    48.0632     4907
    48.3652     6255
    48.6671     4390
    48.9691     6723
    49.2711     2774
    49.5731     3206
    49.8751     3573
    50.1771    10503
    50.4791     3743
    50.7811     5097
    51.0831     2765
    51.3851     3280
    51.6871     4079
    51.9891     2843
    52.2911     2828
    52.5931    10504
    52.8951     3206
    53.1971     4106
    53.4991     3314
    53.8011     2700
    54.1031     2644
    54.4051     2895
    54.7071     2644
    55.0091     2590
    55.3111     3000
    55.6131     5627
    55.9151     2984
    56.2171     3337
    56.5191     9438
    56.8211     2832
    57.1231     6461
    57.4250     7179
    57.7270     3016
    58.0290     4715
    58.3310     3176
    58.6330     6592
    58.9350     5134
    59.2370     5785
    59.5390     3108
    59.8410     7601
    60.1430     4607
    60.4450     2867
    60.7470    10354
    61.0490     6858
    61.3510     3776
    61.6530     2645
    61.9550     2449
    62.2570     2472
    62.5590     2524
    62.8610     2379
    63.1630     2434
    63.4650     2588
    63.7670     3107
    64.0690     2806
    64.3710     3818
    64.6730     2383
    64.9750     2596
    65.2770     2496
    65.5790     2383
    65.8810     2434
    66.1829     2339
    66.4849     2350
    66.7869     2612
    67.0889     2425
    67.3909     2261
    67.6929     2292
    67.9949     2872
    68.2969     2920
    68.5989     2618
    68.9009     3078
    69.2029     2856
    69.5049     3858
    69.8069     3614
    70.1089     5856
    70.4109     3600
    70.7129     4001
    71.0149     4026
    71.3169     4495
    71.6189     2852
    71.9209     3775
    72.2229     2934
    72.5249     2575
    72.8269     2873
    73.1289     2855
    73.4309     3553
    73.7329     3055
    74.0349     3750
    74.3369     3989
    74.6388     2452
    74.9408     2303
    75.2428     2324
    75.5448     2405
    75.8468     2432
    76.1488     2885
    76.4508     4252
    76.7528     2622
    77.0548     3495
    77.3568     3443
    77.6588     2999
    77.9608     2494
    78.2628     2667
    78.5648     3177
    78.8668     3785
    79.1688     3650
    79.4708     3818
    79.7728     3384
    80.0748     3042
    80.3768     6489
    80.6788     4882
    80.9808     3684
    81.2828     3529
    81.5848     2585
    81.8868     2435
    82.1888     4299
    82.4908     3180
    82.7928     2817
    83.0947     2393
    83.3967     2664
    83.6987     2936
    84.0007     2807
    84.3027     2429
    84.6047     2321
    84.9067     2443
    85.2087     2501
    85.5107     2945
    85.8127     3359
    86.1147     2643
    86.4167     2462
    86.7187     2595
    87.0207     3234
    87.3227     2875
    87.6247     3366
    87.9267     3954
    88.2287     2970
    88.5307     3792
    88.8327     3032
    89.1347     3199
    89.4367     3020
    89.7387     2806
    90.0407     2827
    90.3427     2997
    90.6447     3052
    90.9467     2966
    91.2487     3589
    91.5507     3016
    91.8526     3002
    92.1546     3021
    92.4566     2673
    92.7586     2954
    93.0606     2795
    93.3626     2402
    93.6646     2400
    93.9666     2388
    94.2686     2818
    94.5706     2590
    94.8726     3296
    95.1746     2811
    95.4766     2376
    95.7786     2347
    96.0806     2216
    96.3826     2536
    96.6846     2597
    96.9866     3307
    97.2886     3332
    97.5906     3325
    97.8926     2828
    98.1946     2592
    98.4966     2449
    98.7986     3833
    99.1006     4573
    99.4026     3767
    99.7046     3135
    99.9934     3637