File: powder_X-ray_diffraction/variable-temperature_experiments/NaTaO2F2/raw_data/140°C.XY
! Initial file:   D:\ZAKARY_OUAIL\MA_THESE\Deuxième_année_de_thèse\DRX\Manips_DRX\1st_NaTaO2F2_XRK900\NaTaO2F2-Lent_140°C.xrdml
! Initial format:  58
! WAVE (A):      1.54060     1.54060     1.00000
! REM : data have been multiplied by     1.0000
! X_data : 2 Theta (deg.)
! Y_data : Intensity (arb. units)
!     X         Y
!--------------------------------------------------------------------------------
    10.0116     6876
    10.3136     6667
    10.6156     6503
    10.9176     7238
    11.2196    11568
    11.5216     6413
    11.8236     6232
    12.1256     6000
    12.4276     5829
    12.7296     5760
    13.0316     5671
    13.3336     5597
    13.6356     5454
    13.9376     5385
    14.2395     5236
    14.5415     5253
    14.8435     5249
    15.1455     5079
    15.4475     5121
    15.7495     4972
    16.0515     4928
    16.3535     4946
    16.6555     4878
    16.9575     4683
    17.2595     4868
    17.5615     4499
    17.8635     4523
    18.1655     4417
    18.4675     4277
    18.7695     4363
    19.0715     4642
    19.3735     4766
    19.6755    95606
    19.9775     4881
    20.2795     4487
    20.5815     4283
    20.8835     4111
    21.1855     3976
    21.4875     4027
    21.7895     4085
    22.0915     3935
    22.3935    17604
    22.6954     3878
    22.9974     3743
    23.2994     3723
    23.6014     3957
    23.9034     4164
    24.2054    43704
    24.5074    21485
    24.8094     3816
    25.1114     3689
    25.4134     3657
    25.7154     3536
    26.0174     3579
    26.3194     3505
    26.6214     3522
    26.9234     3645
    27.2254     3671
    27.5274     4575
    27.8294    48588
    28.1314     3715
    28.4334     3806
    28.7354     3549
    29.0374     3805
    29.3394    24298
    29.6414     3794
    29.9434     3468
    30.2454     3261
    30.5474     3206
    30.8494     3197
    31.1514     3148
    31.4533     3234
    31.7553     3034
    32.0573     3135
    32.3593     3186
    32.6613     4005
    32.9633     3767
    33.2653    34441
    33.5673     4381
    33.8693    22248
    34.1713     3211
    34.4733     3288
    34.7753     8944
    35.0773     3278
    35.3793     3066
    35.6813     2853
    35.9833     2902
    36.2853     2923
    36.5873     3432
    36.8893     3194
    37.1913     3183
    37.4933     6801
    37.7953     3306
    38.0973     2739
    38.3993     2671
    38.7013     2838
    39.0033     2813
    39.3053     2724
    39.6073     2901
    39.9092     3162
    40.2112     3779
    40.5132     3567
    40.8152     3077
    41.1172    10769
    41.4192     7254
    41.7212     2740
    42.0232     2733
    42.3252     2684
    42.6272     2641
    42.9292     2715
    43.2312     2540
    43.5332     3038
    43.8352     2571
    44.1372     3013
    44.4392     2873
    44.7412     3835
    45.0432     2601
    45.3452     2805
    45.6472     6192
    45.9492     2929
    46.2512     3084
    46.5532     2961
    46.8552     2769
    47.1572     7643
    47.4592     3092
    47.7612     6837
    48.0632     3999
    48.3652     8458
    48.6671     3910
    48.9691     5385
    49.2711     2798
    49.5731     3331
    49.8751     3767
    50.1771     8356
    50.4791     4611
    50.7811     3818
    51.0831     2800
    51.3851     3786
    51.6871     3798
    51.9891     2740
    52.2911     2732
    52.5931     9724
    52.8951     3544
    53.1971     3505
    53.4991     3429
    53.8011     2827
    54.1031     2716
    54.4051     3021
    54.7071     2718
    55.0091     2731
    55.3111     3023
    55.6131     6461
    55.9151     2992
    56.2171     3529
    56.5191     8782
    56.8211     2917
    57.1231     8213
    57.4250     5087
    57.7270     3063
    58.0290     5081
    58.3310     3327
    58.6330     8332
    58.9350     4819
    59.2370     4862
    59.5390     3110
    59.8410     8093
    60.1430     4120
    60.4450     2935
    60.7470    10514
    61.0490     5514
    61.3510     3691
    61.6530     2530
    61.9550     2493
    62.2570     2462
    62.5590     2528
    62.8610     2437
    63.1630     2445
    63.4650     2577
    63.7670     3011
    64.0690     3074
    64.3710     3644
    64.6730     2388
    64.9750     2694
    65.2770     2581
    65.5790     2388
    65.8810     2396
    66.1829     2331
    66.4849     2461
    66.7869     2331
    67.0889     2318
    67.3909     2379
    67.6929     2398
    67.9949     2958
    68.2969     3072
    68.5989     2804
    68.9009     3752
    69.2029     2829
    69.5049     4143
    69.8069     3860
    70.1089     6264
    70.4109     3659
    70.7129     3531
    71.0149     4281
    71.3169     3444
    71.6189     3081
    71.9209     3998
    72.2229     2806
    72.5249     2599
    72.8269     2841
    73.1289     3427
    73.4309     3488
    73.7329     3258
    74.0349     5149
    74.3369     3917
    74.6388     2499
    74.9408     2412
    75.2428     2387
    75.5448     2387
    75.8468     2554
    76.1488     2957
    76.4508     3490
    76.7528     2596
    77.0548     4388
    77.3568     3175
    77.6588     2750
    77.9608     2616
    78.2628     2760
    78.5648     3012
    78.8668     4099
    79.1688     3159
    79.4708     4155
    79.7728     3299
    80.0748     3176
    80.3768     6110
    80.6788     5029
    80.9808     3560
    81.2828     3161
    81.5848     2558
    81.8868     2549
    82.1888     3788
    82.4908     3100
    82.7928     3051
    83.0947     2419
    83.3967     2694
    83.6987     3376
    84.0007     2833
    84.3027     2387
    84.6047     2465
    84.9067     2450
    85.2087     2530
    85.5107     3079
    85.8127     3513
    86.1147     2619
    86.4167     2791
    86.7187     2820
    87.0207     2911
    87.3227     2777
    87.6247     2975
    87.9267     3684
    88.2287     2878
    88.5307     3804
    88.8327     2903
    89.1347     3257
    89.4367     2674
    89.7387     2929
    90.0407     2832
    90.3427     3237
    90.6447     2898
    90.9467     2746
    91.2487     3518
    91.5507     3156
    91.8526     3065
    92.1546     2723
    92.4566     2770
    92.7586     3076
    93.0606     2842
    93.3626     2441
    93.6646     2332
    93.9666     2531
    94.2686     2837
    94.5706     2699
    94.8726     2941
    95.1746     2639
    95.4766     2307
    95.7786     2428
    96.0806     2361
    96.3826     2525
    96.6846     2734
    96.9866     2816
    97.2886     2641
    97.5906     3148
    97.8926     2746
    98.1946     2469
    98.4966     2546
    98.7986     3575
    99.1006     4597
    99.4026     3976
    99.7046     3032
    99.9934     3413