File: powder_X-ray_diffraction/variable-temperature_experiments/NaTaO2F2/raw_data/180°C.XY
! Initial file:   D:\ZAKARY_OUAIL\MA_THESE\Deuxième_année_de_thèse\DRX\Manips_DRX\1st_NaTaO2F2_XRK900\NaTaO2F2-Lent_180°C.xrdml
! Initial format:  58
! WAVE (A):      1.54060     1.54060     1.00000
! REM : data have been multiplied by     1.0000
! X_data : 2 Theta (deg.)
! Y_data : Intensity (arb. units)
!     X         Y
!--------------------------------------------------------------------------------
    10.0116     6865
    10.3136     6569
    10.6156     6451
    10.9176     7078
    11.2196    10814
    11.5216     6138
    11.8236     5950
    12.1256     5986
    12.4276     5902
    12.7296     5777
    13.0316     5574
    13.3336     5467
    13.6356     5407
    13.9376     5276
    14.2395     5173
    14.5415     5089
    14.8435     5047
    15.1455     5017
    15.4475     4793
    15.7495     4830
    16.0515     4844
    16.3535     4797
    16.6555     4681
    16.9575     4691
    17.2595     4899
    17.5615     4534
    17.8635     4466
    18.1655     4536
    18.4675     4337
    18.7695     4163
    19.0715     4610
    19.3735     4783
    19.6755   123122
    19.9775     4600
    20.2795     4389
    20.5815     4127
    20.8835     3960
    21.1855     4076
    21.4875     3950
    21.7895     4137
    22.0915     3965
    22.3935    16568
    22.6954     3920
    22.9974     3731
    23.2994     3761
    23.6014     4057
    23.9034     4271
    24.2054    46324
    24.5074    14437
    24.8094     3689
    25.1114     3697
    25.4134     3691
    25.7154     3471
    26.0174     3392
    26.3194     3348
    26.6214     3563
    26.9234     3536
    27.2254     3618
    27.5274     4917
    27.8294    35130
    28.1314     3691
    28.4334     3625
    28.7354     3555
    29.0374     3893
    29.3394    22760
    29.6414     3739
    29.9434     3450
    30.2454     3249
    30.5474     3245
    30.8494     3105
    31.1514     3097
    31.4533     3145
    31.7553     3224
    32.0573     3070
    32.3593     3144
    32.6613     6664
    32.9633     3577
    33.2653    35369
    33.5673     4895
    33.8693    12933
    34.1713     3259
    34.4733     3392
    34.7753     7535
    35.0773     3350
    35.3793     2920
    35.6813     2994
    35.9833     2992
    36.2853     2955
    36.5873     3359
    36.8893     3112
    37.1913     3240
    37.4933     5114
    37.7953     2922
    38.0973     2833
    38.3993     2772
    38.7013     2735
    39.0033     2794
    39.3053     2822
    39.6073     3081
    39.9092     3423
    40.2112     3396
    40.5132     3500
    40.8152     3342
    41.1172    13794
    41.4192     3907
    41.7212     2654
    42.0232     2737
    42.3252     2723
    42.6272     2640
    42.9292     2814
    43.2312     2772
    43.5332     2993
    43.8352     2630
    44.1372     3163
    44.4392     3088
    44.7412     2970
    45.0432     2595
    45.3452     2691
    45.6472    11588
    45.9492     2737
    46.2512     3150
    46.5532     2957
    46.8552     2832
    47.1572     7290
    47.4592     3097
    47.7612    16418
    48.0632     3431
    48.3652    12707
    48.6671     4328
    48.9691     3780
    49.2711     2831
    49.5731     3504
    49.8751     4743
    50.1771     5652
    50.4791     9865
    50.7811     3183
    51.0831     2781
    51.3851     9243
    51.6871     3109
    51.9891     2801
    52.2911     3079
    52.5931     7031
    52.8951     4869
    53.1971     2890
    53.4991     3726
    53.8011     2777
    54.1031     2664
    54.4051     2937
    54.7071     2680
    55.0091     2679
    55.3111     3546
    55.6131     5626
    55.9151     3111
    56.2171     4215
    56.5191     6053
    56.8211     2942
    57.1231     9768
    57.4250     4583
    57.7270     3177
    58.0290     6915
    58.3310     3074
    58.6330     5485
    58.9350     6787
    59.2370     5977
    59.5390     3392
    59.8410     9667
    60.1430     3580
    60.4450     3018
    60.7470    10493
    61.0490     5110
    61.3510     2885
    61.6530     2610
    61.9550     2581
    62.2570     2361
    62.5590     2405
    62.8610     2457
    63.1630     2579
    63.4650     2802
    63.7670     3359
    64.0690     4238
    64.3710     3303
    64.6730     2496
    64.9750     2694
    65.2770     2465
    65.5790     2453
    65.8810     2401
    66.1829     2382
    66.4849     2521
    66.7869     2404
    67.0889     2408
    67.3909     2393
    67.6929     2455
    67.9949     3216
    68.2969     3039
    68.5989     5298
    68.9009     2603
    69.2029     3214
    69.5049     3460
    69.8069     4802
    70.1089     4663
    70.4109     3951
    70.7129     3526
    71.0149     3511
    71.3169     2997
    71.6189     3739
    71.9209     3653
    72.2229     2505
    72.5249     3092
    72.8269     3445
    73.1289     4342
    73.4309     4040
    73.7329     3030
    74.0349     5286
    74.3369     2708
    74.6388     2375
    74.9408     2263
    75.2428     2416
    75.5448     2455
    75.8468     2420
    76.1488     3051
    76.4508     3202
    76.7528     2679
    77.0548     3406
    77.3568     2641
    77.6588     2728
    77.9608     2568
    78.2628     2998
    78.5648     3167
    78.8668     3894
    79.1688     3141
    79.4708     3266
    79.7728     2762
    80.0748     4206
    80.3768     6644
    80.6788     4004
    80.9808     3421
    81.2828     2911
    81.5848     2574
    81.8868     2850
    82.1888     3412
    82.4908     3164
    82.7928     3082
    83.0947     2462
    83.3967     2716
    83.6987     2733
    84.0007     2371
    84.3027     2476
    84.6047     2349
    84.9067     2479
    85.2087     2772
    85.5107     3921
    85.8127     3278
    86.1147     2469
    86.4167     2850
    86.7187     2693
    87.0207     2713
    87.3227     2862
    87.6247     2878
    87.9267     2905
    88.2287     2799
    88.5307     2777
    88.8327     2599
    89.1347     2781
    89.4367     2629
    89.7387     2704
    90.0407     2963
    90.3427     3015
    90.6447     3405
    90.9467     3119
    91.2487     3606
    91.5507     3300
    91.8526     2905
    92.1546     2636
    92.4566     2935
    92.7586     3600
    93.0606     3036
    93.3626     2415
    93.6646     2401
    93.9666     2801
    94.2686     2616
    94.5706     3026
    94.8726     2738
    95.1746     2457
    95.4766     2335
    95.7786     2334
    96.0806     2485
    96.3826     2394
    96.6846     3624
    96.9866     3574
    97.2886     2863
    97.5906     3431
    97.8926     2936
    98.1946     2471
    98.4966     3013
    98.7986     3008
    99.1006     4203
    99.4026     3999
    99.7046     2969
    99.9934     2770