File: powder_X-ray_diffraction/variable-temperature_experiments/NaTaO2F2/raw_data/220°C.XY
! Initial file:   D:\ZAKARY_OUAIL\MA_THESE\Deuxième_année_de_thèse\DRX\Manips_DRX\1st_NaTaO2F2_XRK900\NaTaO2F2-Lent_220°C.xrdml
! Initial format:  58
! WAVE (A):      1.54060     1.54060     1.00000
! REM : data have been multiplied by     1.0000
! X_data : 2 Theta (deg.)
! Y_data : Intensity (arb. units)
!     X         Y
!--------------------------------------------------------------------------------
    10.0116     6604
    10.3136     6257
    10.6156     6357
    10.9176     6928
    11.2196    10266
    11.5216     5936
    11.8236     5838
    12.1256     5713
    12.4276     5566
    12.7296     5537
    13.0316     5477
    13.3336     5471
    13.6356     5169
    13.9376     5094
    14.2395     5098
    14.5415     4910
    14.8435     4814
    15.1455     4809
    15.4475     4828
    15.7495     4759
    16.0515     4723
    16.3535     4836
    16.6555     4606
    16.9575     4481
    17.2595     4734
    17.5615     4472
    17.8635     4375
    18.1655     4269
    18.4675     4234
    18.7695     4325
    19.0715     4481
    19.3735     4889
    19.6755   121917
    19.9775     4564
    20.2795     4217
    20.5815     4156
    20.8835     3914
    21.1855     3926
    21.4875     3939
    21.7895     4179
    22.0915     3809
    22.3935    16321
    22.6954     3784
    22.9974     3640
    23.2994     3654
    23.6014     3893
    23.9034     4179
    24.2054    47317
    24.5074    10706
    24.8094     3822
    25.1114     3586
    25.4134     3609
    25.7154     3410
    26.0174     3542
    26.3194     3542
    26.6214     3381
    26.9234     3680
    27.2254     3568
    27.5274     5310
    27.8294    21358
    28.1314     3683
    28.4334     3542
    28.7354     3570
    29.0374     3890
    29.3394    20569
    29.6414     3596
    29.9434     3536
    30.2454     3209
    30.5474     3248
    30.8494     3225
    31.1514     3177
    31.4533     3137
    31.7553     3150
    32.0573     3262
    32.3593     3304
    32.6613    19528
    32.9633     3562
    33.2653    32683
    33.5673     5919
    33.8693    10843
    34.1713     3198
    34.4733     3495
    34.7753     4279
    35.0773     3187
    35.3793     2832
    35.6813     2887
    35.9833     2965
    36.2853     2902
    36.5873     3551
    36.8893     3120
    37.1913     3341
    37.4933     3312
    37.7953     2862
    38.0973     2762
    38.3993     2867
    38.7013     2790
    39.0033     2718
    39.3053     2687
    39.6073     3971
    39.9092     4923
    40.2112     3397
    40.5132     3297
    40.8152     3790
    41.1172    10671
    41.4192     3279
    41.7212     2784
    42.0232     2654
    42.3252     2804
    42.6272     2653
    42.9292     2684
    43.2312     2574
    43.5332     2725
    43.8352     2630
    44.1372     3983
    44.4392     4315
    44.7412     2735
    45.0432     2636
    45.3452     2802
    45.6472     9954
    45.9492     2731
    46.2512     3317
    46.5532     2902
    46.8552     2780
    47.1572     5437
    47.4592     3234
    47.7612    17302
    48.0632     3247
    48.3652    12888
    48.6671     6406
    48.9691     3179
    49.2711     2977
    49.5731     3406
    49.8751     7780
    50.1771     4525
    50.4791     8268
    50.7811     2972
    51.0831     2943
    51.3851     4742
    51.6871     3057
    51.9891     2858
    52.2911     3031
    52.5931     5853
    52.8951     5962
    53.1971     2777
    53.4991     3837
    53.8011     2797
    54.1031     2691
    54.4051     2786
    54.7071     2740
    55.0091     2836
    55.3111     8019
    55.6131     3515
    55.9151     2850
    56.2171     7361
    56.5191     4675
    56.8211     3100
    57.1231     6852
    57.4250     4640
    57.7270     3425
    58.0290     6237
    58.3310     3298
    58.6330     7500
    58.9350     8206
    59.2370     3237
    59.5390     5257
    59.8410    10200
    60.1430     3239
    60.4450     3219
    60.7470     7375
    61.0490     5524
    61.3510     2708
    61.6530     2591
    61.9550     2451
    62.2570     2510
    62.5590     2465
    62.8610     2431
    63.1630     2617
    63.4650     3115
    63.7670     2886
    64.0690     3465
    64.3710     2912
    64.6730     2551
    64.9750     2749
    65.2770     2409
    65.5790     2369
    65.8810     2426
    66.1829     2448
    66.4849     2474
    66.7869     2403
    67.0889     2326
    67.3909     2476
    67.6929     2441
    67.9949     3393
    68.2969     2774
    68.5989     2973
    68.9009     2491
    69.2029     3984
    69.5049     3402
    69.8069     6376
    70.1089     4241
    70.4109     4537
    70.7129     3839
    71.0149     3623
    71.3169     3657
    71.6189     4176
    71.9209     3107
    72.2229     2437
    72.5249     4101
    72.8269     2701
    73.1289     3109
    73.4309     3389
    73.7329     3363
    74.0349     4084
    74.3369     2520
    74.6388     2425
    74.9408     2420
    75.2428     2410
    75.5448     2540
    75.8468     2585
    76.1488     3562
    76.4508     3631
    76.7528     3197
    77.0548     3351
    77.3568     2513
    77.6588     2567
    77.9608     2774
    78.2628     3375
    78.5648     3854
    78.8668     4092
    79.1688     2814
    79.4708     3141
    79.7728     2877
    80.0748     4199
    80.3768     4751
    80.6788     4007
    80.9808     3606
    81.2828     2888
    81.5848     2450
    81.8868     3741
    82.1888     3289
    82.4908     3916
    82.7928     2701
    83.0947     2556
    83.3967     2859
    83.6987     2647
    84.0007     2408
    84.3027     2475
    84.6047     2521
    84.9067     2457
    85.2087     2904
    85.5107     4301
    85.8127     3032
    86.1147     2647
    86.4167     2644
    86.7187     3327
    87.0207     2968
    87.3227     3111
    87.6247     2825
    87.9267     2801
    88.2287     3738
    88.5307     3129
    88.8327     2613
    89.1347     2728
    89.4367     2825
    89.7387     3182
    90.0407     3583
    90.3427     2959
    90.6447     2919
    90.9467     3208
    91.2487     3667
    91.5507     3807
    91.8526     3213
    92.1546     2781
    92.4566     2924
    92.7586     2920
    93.0606     2564
    93.3626     2480
    93.6646     2816
    93.9666     2889
    94.2686     2600
    94.5706     3321
    94.8726     2919
    95.1746     2453
    95.4766     2366
    95.7786     2371
    96.0806     2421
    96.3826     2623
    96.6846     3042
    96.9866     2844
    97.2886     2605
    97.5906     2805
    97.8926     2762
    98.1946     2501
    98.4966     3650
    98.7986     3459
    99.1006     4420
    99.4026     3469
    99.7046     2733
    99.9934     2744