File: powder_X-ray_diffraction/variable-temperature_experiments/NaTaO2F2/raw_data/230°C.XY
! Initial file:   D:\ZAKARY_OUAIL\MA_THESE\Deuxième_année_de_thèse\DRX\Manips_DRX\1st_NaTaO2F2_XRK900\NaTaO2F2-Lent_230°C.xrdml
! Initial format:  58
! WAVE (A):      1.54060     1.54060     1.00000
! REM : data have been multiplied by     1.0000
! X_data : 2 Theta (deg.)
! Y_data : Intensity (arb. units)
!     X         Y
!--------------------------------------------------------------------------------
    10.0116     6462
    10.3136     6331
    10.6156     6236
    10.9176     6858
    11.2196     9711
    11.5216     6097
    11.8236     6007
    12.1256     5679
    12.4276     5601
    12.7296     5546
    13.0316     5472
    13.3336     5276
    13.6356     5340
    13.9376     5157
    14.2395     4970
    14.5415     4981
    14.8435     4700
    15.1455     4843
    15.4475     4806
    15.7495     4626
    16.0515     4772
    16.3535     4784
    16.6555     4595
    16.9575     4473
    17.2595     4738
    17.5615     4431
    17.8635     4364
    18.1655     4259
    18.4675     4146
    18.7695     4261
    19.0715     4614
    19.3735     4801
    19.6755   120079
    19.9775     4731
    20.2795     4315
    20.5815     4097
    20.8835     4040
    21.1855     3914
    21.4875     3875
    21.7895     4247
    22.0915     3862
    22.3935    16403
    22.6954     3846
    22.9974     3811
    23.2994     3699
    23.6014     3880
    23.9034     4245
    24.2054    45353
    24.5074     9546
    24.8094     3760
    25.1114     3664
    25.4134     3623
    25.7154     3489
    26.0174     3530
    26.3194     3553
    26.6214     3549
    26.9234     3657
    27.2254     3733
    27.5274     5398
    27.8294    18288
    28.1314     3622
    28.4334     3607
    28.7354     3451
    29.0374     3967
    29.3394    20217
    29.6414     3608
    29.9434     3314
    30.2454     3314
    30.5474     3172
    30.8494     3240
    31.1514     3125
    31.4533     3073
    31.7553     3147
    32.0573     3177
    32.3593     3154
    32.6613    21521
    32.9633     3585
    33.2653    32194
    33.5673     6511
    33.8693    10987
    34.1713     3185
    34.4733     3542
    34.7753     3900
    35.0773     3067
    35.3793     3020
    35.6813     2869
    35.9833     2941
    36.2853     2967
    36.5873     3432
    36.8893     3179
    37.1913     3372
    37.4933     3302
    37.7953     2871
    38.0973     2756
    38.3993     2786
    38.7013     2793
    39.0033     2786
    39.3053     2853
    39.6073     4167
    39.9092     5904
    40.2112     3362
    40.5132     3205
    40.8152     4201
    41.1172     9698
    41.4192     3037
    41.7212     2764
    42.0232     2692
    42.3252     2794
    42.6272     2646
    42.9292     2738
    43.2312     2657
    43.5332     2806
    43.8352     2726
    44.1372     4128
    44.4392     4711
    44.7412     2831
    45.0432     2672
    45.3452     2811
    45.6472     8745
    45.9492     2809
    46.2512     3395
    46.5532     2922
    46.8552     2837
    47.1572     5600
    47.4592     3256
    47.7612    14904
    48.0632     3171
    48.3652    13257
    48.6671     7606
    48.9691     3162
    49.2711     2975
    49.5731     3393
    49.8751     9346
    50.1771     4236
    50.4791     6991
    50.7811     3033
    51.0831     2997
    51.3851     4649
    51.6871     3093
    51.9891     2764
    52.2911     3021
    52.5931     6103
    52.8951     6015
    53.1971     2684
    53.4991     3938
    53.8011     2854
    54.1031     2707
    54.4051     2818
    54.7071     2685
    55.0091     2780
    55.3111    10335
    55.6131     3616
    55.9151     2890
    56.2171     8155
    56.5191     4357
    56.8211     3189
    57.1231     6712
    57.4250     4387
    57.7270     3621
    58.0290     5674
    58.3310     3565
    58.6330     8460
    58.9350     9259
    59.2370     3152
    59.5390     5924
    59.8410    10471
    60.1430     3224
    60.4450     3264
    60.7470     7612
    61.0490     5257
    61.3510     2671
    61.6530     2639
    61.9550     2577
    62.2570     2554
    62.5590     2454
    62.8610     2457
    63.1630     2425
    63.4650     3469
    63.7670     2774
    64.0690     3644
    64.3710     2785
    64.6730     2515
    64.9750     2787
    65.2770     2472
    65.5790     2313
    65.8810     2403
    66.1829     2405
    66.4849     2433
    66.7869     2459
    67.0889     2339
    67.3909     2456
    67.6929     2440
    67.9949     3526
    68.2969     2794
    68.5989     3099
    68.9009     2568
    69.2029     3951
    69.5049     3389
    69.8069     7006
    70.1089     4167
    70.4109     4738
    70.7129     4195
    71.0149     3743
    71.3169     3968
    71.6189     4523
    71.9209     3137
    72.2229     2560
    72.5249     3950
    72.8269     2661
    73.1289     2953
    73.4309     3238
    73.7329     3819
    74.0349     3982
    74.3369     2457
    74.6388     2411
    74.9408     2383
    75.2428     2467
    75.5448     2487
    75.8468     2533
    76.1488     3913
    76.4508     3539
    76.7528     3566
    77.0548     3390
    77.3568     2580
    77.6588     2644
    77.9608     2716
    78.2628     3653
    78.5648     4327
    78.8668     3713
    79.1688     2779
    79.4708     3199
    79.7728     2988
    80.0748     3868
    80.3768     4547
    80.6788     4031
    80.9808     3534
    81.2828     2917
    81.5848     2584
    81.8868     3596
    82.1888     3056
    82.4908     3823
    82.7928     2642
    83.0947     2690
    83.3967     2938
    83.6987     2781
    84.0007     2518
    84.3027     2558
    84.6047     2400
    84.9067     2538
    85.2087     3094
    85.5107     3968
    85.8127     2887
    86.1147     2667
    86.4167     2689
    86.7187     3306
    87.0207     2746
    87.3227     2822
    87.6247     3031
    87.9267     2857
    88.2287     3732
    88.5307     2983
    88.8327     2568
    89.1347     2755
    89.4367     2856
    89.7387     3232
    90.0407     3871
    90.3427     3132
    90.6447     2854
    90.9467     2969
    91.2487     3572
    91.5507     4116
    91.8526     3265
    92.1546     2775
    92.4566     3113
    92.7586     2833
    93.0606     2511
    93.3626     2332
    93.6646     3046
    93.9666     2972
    94.2686     2561
    94.5706     3146
    94.8726     2759
    95.1746     2422
    95.4766     2420
    95.7786     2418
    96.0806     2371
    96.3826     2717
    96.6846     3224
    96.9866     2768
    97.2886     2607
    97.5906     2761
    97.8926     2729
    98.1946     2506
    98.4966     3708
    98.7986     3586
    99.1006     4350
    99.4026     3392
    99.7046     2717
    99.9934     2757