File: powder_X-ray_diffraction/variable-temperature_experiments/NaTaO2F2/raw_data/240°C.XY
! Initial file:   D:\ZAKARY_OUAIL\MA_THESE\Deuxième_année_de_thèse\DRX\Manips_DRX\1st_NaTaO2F2_XRK900\NaTaO2F2-Lent_240°C.xrdml
! Initial format:  58
! WAVE (A):      1.54060     1.54060     1.00000
! REM : data have been multiplied by     1.0000
! X_data : 2 Theta (deg.)
! Y_data : Intensity (arb. units)
!     X         Y
!--------------------------------------------------------------------------------
    10.0116     6552
    10.3136     6297
    10.6156     6367
    10.9176     6854
    11.2196     9648
    11.5216     5939
    11.8236     5712
    12.1256     5793
    12.4276     5559
    12.7296     5424
    13.0316     5486
    13.3336     5367
    13.6356     5201
    13.9376     5115
    14.2395     5009
    14.5415     4963
    14.8435     4811
    15.1455     4727
    15.4475     4698
    15.7495     4721
    16.0515     4766
    16.3535     4881
    16.6555     4615
    16.9575     4471
    17.2595     4657
    17.5615     4434
    17.8635     4325
    18.1655     4243
    18.4675     4229
    18.7695     4120
    19.0715     4579
    19.3735     4790
    19.6755   115410
    19.9775     4598
    20.2795     4201
    20.5815     4119
    20.8835     4081
    21.1855     3910
    21.4875     3831
    21.7895     4011
    22.0915     3982
    22.3935    16011
    22.6954     3633
    22.9974     3743
    23.2994     3668
    23.6014     3947
    23.9034     4176
    24.2054    45129
    24.5074     8223
    24.8094     3619
    25.1114     3639
    25.4134     3658
    25.7154     3614
    26.0174     3469
    26.3194     3597
    26.6214     3257
    26.9234     3696
    27.2254     3594
    27.5274     5325
    27.8294    16271
    28.1314     3688
    28.4334     3606
    28.7354     3557
    29.0374     4022
    29.3394    20258
    29.6414     3509
    29.9434     3482
    30.2454     3229
    30.5474     3310
    30.8494     3196
    31.1514     3110
    31.4533     3092
    31.7553     3162
    32.0573     3042
    32.3593     3324
    32.6613    21061
    32.9633     3547
    33.2653    30247
    33.5673     7638
    33.8693    10750
    34.1713     3265
    34.4733     3532
    34.7753     3650
    35.0773     3073
    35.3793     2930
    35.6813     2839
    35.9833     2966
    36.2853     2968
    36.5873     3497
    36.8893     3134
    37.1913     3572
    37.4933     3102
    37.7953     2958
    38.0973     2801
    38.3993     2797
    38.7013     2818
    39.0033     2638
    39.3053     2797
    39.6073     4419
    39.9092     6958
    40.2112     3298
    40.5132     3236
    40.8152     4866
    41.1172    10077
    41.4192     2968
    41.7212     2746
    42.0232     2684
    42.3252     2742
    42.6272     2773
    42.9292     2724
    43.2312     2666
    43.5332     2637
    43.8352     2651
    44.1372     4176
    44.4392     5428
    44.7412     2688
    45.0432     2653
    45.3452     2802
    45.6472     7289
    45.9492     2733
    46.2512     3447
    46.5532     2923
    46.8552     2955
    47.1572     5946
    47.4592     3257
    47.7612    12472
    48.0632     3180
    48.3652    13444
    48.6671     8912
    48.9691     3080
    49.2711     2899
    49.5731     3547
    49.8751    11514
    50.1771     4130
    50.4791     6381
    50.7811     2917
    51.0831     2916
    51.3851     5124
    51.6871     2978
    51.9891     2811
    52.2911     3121
    52.5931     6084
    52.8951     6419
    53.1971     2729
    53.4991     4100
    53.8011     2695
    54.1031     2727
    54.4051     2885
    54.7071     2673
    55.0091     2873
    55.3111    11394
    55.6131     3569
    55.9151     2882
    56.2171     8359
    56.5191     3898
    56.8211     3271
    57.1231     6784
    57.4250     3962
    57.7270     3740
    58.0290     5233
    58.3310     3714
    58.6330     9201
    58.9350     9518
    59.2370     3128
    59.5390     6690
    59.8410    10820
    60.1430     3182
    60.4450     3386
    60.7470     8681
    61.0490     4761
    61.3510     2578
    61.6530     2570
    61.9550     2538
    62.2570     2498
    62.5590     2430
    62.8610     2587
    63.1630     2538
    63.4650     3716
    63.7670     2915
    64.0690     3896
    64.3710     2688
    64.6730     2546
    64.9750     2698
    65.2770     2468
    65.5790     2388
    65.8810     2438
    66.1829     2423
    66.4849     2436
    66.7869     2495
    67.0889     2379
    67.3909     2384
    67.6929     2402
    67.9949     3639
    68.2969     2881
    68.5989     3378
    68.9009     2551
    69.2029     4210
    69.5049     3288
    69.8069     7411
    70.1089     3884
    70.4109     4816
    70.7129     4562
    71.0149     3796
    71.3169     3645
    71.6189     4629
    71.9209     3120
    72.2229     2504
    72.5249     3450
    72.8269     2594
    73.1289     3060
    73.4309     3236
    73.7329     4540
    74.0349     3937
    74.3369     2504
    74.6388     2361
    74.9408     2375
    75.2428     2461
    75.5448     2568
    75.8468     2629
    76.1488     4277
    76.4508     3430
    76.7528     4128
    77.0548     3462
    77.3568     2488
    77.6588     2649
    77.9608     2732
    78.2628     3467
    78.5648     4480
    78.8668     3494
    79.1688     2732
    79.4708     3275
    79.7728     2946
    80.0748     3645
    80.3768     4480
    80.6788     3800
    80.9808     3492
    81.2828     2755
    81.5848     2666
    81.8868     3401
    82.1888     2848
    82.4908     3604
    82.7928     2646
    83.0947     2619
    83.3967     3049
    83.6987     2920
    84.0007     2449
    84.3027     2547
    84.6047     2513
    84.9067     2422
    85.2087     3226
    85.5107     3736
    85.8127     2815
    86.1147     2861
    86.4167     2721
    86.7187     3069
    87.0207     2831
    87.3227     2665
    87.6247     2945
    87.9267     2936
    88.2287     3453
    88.5307     2848
    88.8327     2663
    89.1347     2812
    89.4367     2694
    89.7387     3247
    90.0407     3753
    90.3427     3212
    90.6447     2821
    90.9467     2871
    91.2487     3351
    91.5507     4433
    91.8526     3523
    92.1546     3023
    92.4566     3306
    92.7586     2863
    93.0606     2563
    93.3626     2370
    93.6646     3165
    93.9666     2934
    94.2686     2669
    94.5706     2849
    94.8726     2609
    95.1746     2402
    95.4766     2465
    95.7786     2443
    96.0806     2448
    96.3826     2929
    96.6846     3482
    96.9866     2812
    97.2886     2672
    97.5906     2606
    97.8926     2546
    98.1946     2696
    98.4966     3822
    98.7986     3621
    99.1006     4344
    99.4026     3448
    99.7046     2700
    99.9934     2822