File: powder_X-ray_diffraction/variable-temperature_experiments/NaTaO2F2/raw_data/250°C.XY
! Initial file:   D:\ZAKARY_OUAIL\MA_THESE\Deuxième_année_de_thèse\DRX\Manips_DRX\1st_NaTaO2F2_XRK900\NaTaO2F2-Lent_250°C.xrdml
! Initial format:  58
! WAVE (A):      1.54060     1.54060     1.00000
! REM : data have been multiplied by     1.0000
! X_data : 2 Theta (deg.)
! Y_data : Intensity (arb. units)
!     X         Y
!--------------------------------------------------------------------------------
    10.0116     6413
    10.3136     6163
    10.6156     6201
    10.9176     6738
    11.2196     9527
    11.5216     5947
    11.8236     5902
    12.1256     5575
    12.4276     5539
    12.7296     5500
    13.0316     5317
    13.3336     5242
    13.6356     5224
    13.9376     4958
    14.2395     4979
    14.5415     4894
    14.8435     4967
    15.1455     4857
    15.4475     4730
    15.7495     4711
    16.0515     4644
    16.3535     4791
    16.6555     4594
    16.9575     4519
    17.2595     4589
    17.5615     4392
    17.8635     4370
    18.1655     4297
    18.4675     4057
    18.7695     4225
    19.0715     4451
    19.3735     4849
    19.6755   109574
    19.9775     4521
    20.2795     4373
    20.5815     4138
    20.8835     3892
    21.1855     3916
    21.4875     3772
    21.7895     4255
    22.0915     3886
    22.3935    15353
    22.6954     3744
    22.9974     3578
    23.2994     3626
    23.6014     3899
    23.9034     4052
    24.2054    45426
    24.5074     7323
    24.8094     3758
    25.1114     3573
    25.4134     3645
    25.7154     3493
    26.0174     3506
    26.3194     3542
    26.6214     3476
    26.9234     3610
    27.2254     3709
    27.5274     5692
    27.8294    14236
    28.1314     3708
    28.4334     3640
    28.7354     3523
    29.0374     3889
    29.3394    20533
    29.6414     3508
    29.9434     3390
    30.2454     3239
    30.5474     3216
    30.8494     3155
    31.1514     3114
    31.4533     3098
    31.7553     3211
    32.0573     3142
    32.3593     3244
    32.6613    18148
    32.9633     3617
    33.2653    29755
    33.5673     9108
    33.8693    11068
    34.1713     3193
    34.4733     3627
    34.7753     3546
    35.0773     3047
    35.3793     2883
    35.6813     3041
    35.9833     2959
    36.2853     2893
    36.5873     3544
    36.8893     3074
    37.1913     3798
    37.4933     3093
    37.7953     2944
    38.0973     2756
    38.3993     2645
    38.7013     2822
    39.0033     2783
    39.3053     2792
    39.6073     4380
    39.9092     7713
    40.2112     3383
    40.5132     3189
    40.8152     5665
    41.1172    10824
    41.4192     3031
    41.7212     2899
    42.0232     2720
    42.3252     2676
    42.6272     2705
    42.9292     2748
    43.2312     2705
    43.5332     2653
    43.8352     2718
    44.1372     4125
    44.4392     5621
    44.7412     2605
    45.0432     2703
    45.3452     2808
    45.6472     6752
    45.9492     2738
    46.2512     3447
    46.5532     2844
    46.8552     2964
    47.1572     6028
    47.4592     3286
    47.7612    10846
    48.0632     3143
    48.3652    13087
    48.6671    10638
    48.9691     3078
    49.2711     2935
    49.5731     3502
    49.8751    13681
    50.1771     3936
    50.4791     6573
    50.7811     2884
    51.0831     3061
    51.3851     5787
    51.6871     3031
    51.9891     2862
    52.2911     3119
    52.5931     6318
    52.8951     5879
    53.1971     2729
    53.4991     4085
    53.8011     2798
    54.1031     2738
    54.4051     2922
    54.7071     2651
    55.0091     2906
    55.3111    10390
    55.6131     3457
    55.9151     2902
    56.2171     8422
    56.5191     3801
    56.8211     3367
    57.1231     7003
    57.4250     3748
    57.7270     3802
    58.0290     4704
    58.3310     4382
    58.6330     9768
    58.9350     8325
    59.2370     3207
    59.5390     7571
    59.8410    10920
    60.1430     3036
    60.4450     3539
    60.7470     9585
    61.0490     4061
    61.3510     2709
    61.6530     2531
    61.9550     2583
    62.2570     2551
    62.5590     2499
    62.8610     2530
    63.1630     2524
    63.4650     3918
    63.7670     2841
    64.0690     4208
    64.3710     2679
    64.6730     2561
    64.9750     2713
    65.2770     2415
    65.5790     2462
    65.8810     2438
    66.1829     2304
    66.4849     2569
    66.7869     2461
    67.0889     2371
    67.3909     2464
    67.6929     2466
    67.9949     3588
    68.2969     3016
    68.5989     3769
    68.9009     2497
    69.2029     4549
    69.5049     3408
    69.8069     7233
    70.1089     3545
    70.4109     4997
    70.7129     4693
    71.0149     3676
    71.3169     3497
    71.6189     4595
    71.9209     3170
    72.2229     2604
    72.5249     3016
    72.8269     2744
    73.1289     3258
    73.4309     3375
    73.7329     5338
    74.0349     3946
    74.3369     2489
    74.6388     2485
    74.9408     2336
    75.2428     2518
    75.5448     2567
    75.8468     2578
    76.1488     4687
    76.4508     3139
    76.7528     4322
    77.0548     3182
    77.3568     2546
    77.6588     2624
    77.9608     2804
    78.2628     3602
    78.5648     4512
    78.8668     3433
    79.1688     2981
    79.4708     3495
    79.7728     3121
    80.0748     3741
    80.3768     4640
    80.6788     3768
    80.9808     3300
    81.2828     2698
    81.5848     2624
    81.8868     3140
    82.1888     2833
    82.4908     3474
    82.7928     2769
    83.0947     2748
    83.3967     3291
    83.6987     2787
    84.0007     2451
    84.3027     2564
    84.6047     2443
    84.9067     2519
    85.2087     3186
    85.5107     3579
    85.8127     2698
    86.1147     3120
    86.4167     2836
    86.7187     2936
    87.0207     2700
    87.3227     2709
    87.6247     3146
    87.9267     2987
    88.2287     3003
    88.5307     2744
    88.8327     2803
    89.1347     2704
    89.4367     2605
    89.7387     3437
    90.0407     3804
    90.3427     3411
    90.6447     3066
    90.9467     2894
    91.2487     3326
    91.5507     4264
    91.8526     3236
    92.1546     2933
    92.4566     3606
    92.7586     2955
    93.0606     2459
    93.3626     2445
    93.6646     2971
    93.9666     2769
    94.2686     2739
    94.5706     2952
    94.8726     2537
    95.1746     2339
    95.4766     2418
    95.7786     2509
    96.0806     2497
    96.3826     3238
    96.6846     3333
    96.9866     2847
    97.2886     2810
    97.5906     2784
    97.8926     2607
    98.1946     2771
    98.4966     3792
    98.7986     3885
    99.1006     4292
    99.4026     3355
    99.7046     2878
    99.9934     2995