File: powder_X-ray_diffraction/variable-temperature_experiments/NaTaO2F2/raw_data/260°C.XY
! Initial file:   D:\ZAKARY_OUAIL\MA_THESE\Deuxième_année_de_thèse\DRX\Manips_DRX\1st_NaTaO2F2_XRK900\NaTaO2F2-Lent_260°C.xrdml
! Initial format:  58
! WAVE (A):      1.54060     1.54060     1.00000
! REM : data have been multiplied by     1.0000
! X_data : 2 Theta (deg.)
! Y_data : Intensity (arb. units)
!     X         Y
!--------------------------------------------------------------------------------
    10.0116     6282
    10.3136     6248
    10.6156     5934
    10.9176     6707
    11.2196     9668
    11.5216     5943
    11.8236     5755
    12.1256     5638
    12.4276     5384
    12.7296     5412
    13.0316     5303
    13.3336     5227
    13.6356     5102
    13.9376     5017
    14.2395     4890
    14.5415     4823
    14.8435     4948
    15.1455     4788
    15.4475     4669
    15.7495     4567
    16.0515     4688
    16.3535     4779
    16.6555     4488
    16.9575     4529
    17.2595     4518
    17.5615     4328
    17.8635     4293
    18.1655     4216
    18.4675     4293
    18.7695     4148
    19.0715     4462
    19.3735     4938
    19.6755   106350
    19.9775     4495
    20.2795     4136
    20.5815     3962
    20.8835     3962
    21.1855     3836
    21.4875     3840
    21.7895     4137
    22.0915     4005
    22.3935    14610
    22.6954     3844
    22.9974     3615
    23.2994     3743
    23.6014     3879
    23.9034     4187
    24.2054    44783
    24.5074     6707
    24.8094     3621
    25.1114     3685
    25.4134     3600
    25.7154     3517
    26.0174     3570
    26.3194     3564
    26.6214     3376
    26.9234     3622
    27.2254     3725
    27.5274     5825
    27.8294    12462
    28.1314     3638
    28.4334     3645
    28.7354     3410
    29.0374     3961
    29.3394    20622
    29.6414     3552
    29.9434     3382
    30.2454     3329
    30.5474     3166
    30.8494     3139
    31.1514     3193
    31.4533     3019
    31.7553     3070
    32.0573     3134
    32.3593     3262
    32.6613    15153
    32.9633     3539
    33.2653    29370
    33.5673    11381
    33.8693    10882
    34.1713     3316
    34.4733     3731
    34.7753     3505
    35.0773     3058
    35.3793     3061
    35.6813     2947
    35.9833     3066
    36.2853     2988
    36.5873     3515
    36.8893     3056
    37.1913     4059
    37.4933     3177
    37.7953     2781
    38.0973     2740
    38.3993     2822
    38.7013     2815
    39.0033     2774
    39.3053     2770
    39.6073     4794
    39.9092     8036
    40.2112     3440
    40.5132     3128
    40.8152     6750
    41.1172    12883
    41.4192     2853
    41.7212     2747
    42.0232     2660
    42.3252     2742
    42.6272     2689
    42.9292     2791
    43.2312     2739
    43.5332     2700
    43.8352     2689
    44.1372     3950
    44.4392     5451
    44.7412     2736
    45.0432     2716
    45.3452     2788
    45.6472     5615
    45.9492     2784
    46.2512     3678
    46.5532     2895
    46.8552     2994
    47.1572     5677
    47.4592     3298
    47.7612    10067
    48.0632     3267
    48.3652    12223
    48.6671    12063
    48.9691     3056
    49.2711     3007
    49.5731     3601
    49.8751    15767
    50.1771     3836
    50.4791     6909
    50.7811     2915
    51.0831     2954
    51.3851     6141
    51.6871     2836
    51.9891     2910
    52.2911     3073
    52.5931     6471
    52.8951     5454
    53.1971     2736
    53.4991     4057
    53.8011     2861
    54.1031     2761
    54.4051     2814
    54.7071     2828
    55.0091     2990
    55.3111     8368
    55.6131     3374
    55.9151     2851
    56.2171     8786
    56.5191     3740
    56.8211     3690
    57.1231     7448
    57.4250     3505
    57.7270     4129
    58.0290     4424
    58.3310     5027
    58.6330     9610
    58.9350     6345
    59.2370     3148
    59.5390     8028
    59.8410    11293
    60.1430     3146
    60.4450     3713
    60.7470    10319
    61.0490     3749
    61.3510     2609
    61.6530     2583
    61.9550     2647
    62.2570     2497
    62.5590     2457
    62.8610     2540
    63.1630     2576
    63.4650     4083
    63.7670     2844
    64.0690     4247
    64.3710     2740
    64.6730     2678
    64.9750     2616
    65.2770     2462
    65.5790     2504
    65.8810     2400
    66.1829     2329
    66.4849     2495
    66.7869     2484
    67.0889     2485
    67.3909     2446
    67.6929     2477
    67.9949     3713
    68.2969     3232
    68.5989     3482
    68.9009     2461
    69.2029     4555
    69.5049     3529
    69.8069     7343
    70.1089     3369
    70.4109     5207
    70.7129     4770
    71.0149     3650
    71.3169     3440
    71.6189     4595
    71.9209     2991
    72.2229     2583
    72.5249     2847
    72.8269     2832
    73.1289     3577
    73.4309     3764
    73.7329     5849
    74.0349     3463
    74.3369     2467
    74.6388     2428
    74.9408     2441
    75.2428     2407
    75.5448     2633
    75.8468     2677
    76.1488     4882
    76.4508     3176
    76.7528     4491
    77.0548     2883
    77.3568     2542
    77.6588     2658
    77.9608     2914
    78.2628     3416
    78.5648     4293
    78.8668     3342
    79.1688     3001
    79.4708     3513
    79.7728     3143
    80.0748     3833
    80.3768     4665
    80.6788     3602
    80.9808     3431
    81.2828     2648
    81.5848     2678
    81.8868     2948
    82.1888     2738
    82.4908     3381
    82.7928     2614
    83.0947     2823
    83.3967     3446
    83.6987     2824
    84.0007     2367
    84.3027     2562
    84.6047     2439
    84.9067     2605
    85.2087     3379
    85.5107     3304
    85.8127     2653
    86.1147     3103
    86.4167     2727
    86.7187     2793
    87.0207     2856
    87.3227     2773
    87.6247     3253
    87.9267     3157
    88.2287     2860
    88.5307     2658
    88.8327     2813
    89.1347     2816
    89.4367     2654
    89.7387     3423
    90.0407     3723
    90.3427     3583
    90.6447     3075
    90.9467     2887
    91.2487     3141
    91.5507     3971
    91.8526     3028
    92.1546     2994
    92.4566     3784
    92.7586     3050
    93.0606     2427
    93.3626     2539
    93.6646     2749
    93.9666     2638
    94.2686     2958
    94.5706     2797
    94.8726     2504
    95.1746     2475
    95.4766     2379
    95.7786     2521
    96.0806     2542
    96.3826     3599
    96.6846     3232
    96.9866     2748
    97.2886     2914
    97.5906     2755
    97.8926     2496
    98.1946     2983
    98.4966     3723
    98.7986     3904
    99.1006     4210
    99.4026     3395
    99.7046     2875
    99.9934     2945