File: powder_X-ray_diffraction/variable-temperature_experiments/NaTaO2F2/raw_data/270°C.XY
! Initial file:   D:\ZAKARY_OUAIL\MA_THESE\Deuxième_année_de_thèse\DRX\Manips_DRX\1st_NaTaO2F2_XRK900\NaTaO2F2-Lent_270°C.xrdml
! Initial format:  58
! WAVE (A):      1.54060     1.54060     1.00000
! REM : data have been multiplied by     1.0000
! X_data : 2 Theta (deg.)
! Y_data : Intensity (arb. units)
!     X         Y
!--------------------------------------------------------------------------------
    10.0116     6289
    10.3136     6140
    10.6156     6095
    10.9176     6946
    11.2196     8868
    11.5216     5924
    11.8236     5649
    12.1256     5555
    12.4276     5445
    12.7296     5395
    13.0316     5234
    13.3336     5222
    13.6356     5189
    13.9376     4930
    14.2395     4987
    14.5415     4907
    14.8435     4904
    15.1455     4756
    15.4475     4705
    15.7495     4676
    16.0515     4733
    16.3535     4778
    16.6555     4546
    16.9575     4334
    17.2595     4597
    17.5615     4520
    17.8635     4367
    18.1655     4150
    18.4675     4260
    18.7695     4067
    19.0715     4499
    19.3735     4929
    19.6755   103764
    19.9775     4533
    20.2795     4152
    20.5815     4194
    20.8835     3942
    21.1855     3826
    21.4875     3884
    21.7895     4161
    22.0915     3887
    22.3935    13411
    22.6954     3755
    22.9974     3658
    23.2994     3774
    23.6014     3949
    23.9034     4206
    24.2054    43513
    24.5074     6306
    24.8094     3627
    25.1114     3696
    25.4134     3663
    25.7154     3447
    26.0174     3584
    26.3194     3611
    26.6214     3406
    26.9234     3561
    27.2254     3633
    27.5274     5984
    27.8294    10992
    28.1314     3726
    28.4334     3618
    28.7354     3609
    29.0374     4056
    29.3394    21232
    29.6414     3465
    29.9434     3307
    30.2454     3334
    30.5474     3178
    30.8494     3184
    31.1514     3120
    31.4533     3037
    31.7553     3150
    32.0573     3080
    32.3593     3222
    32.6613    12950
    32.9633     3590
    33.2653    27897
    33.5673    14234
    33.8693    10461
    34.1713     3180
    34.4733     3890
    34.7753     3392
    35.0773     3063
    35.3793     2873
    35.6813     2964
    35.9833     2895
    36.2853     2966
    36.5873     3482
    36.8893     3056
    37.1913     4513
    37.4933     3041
    37.7953     2888
    38.0973     2746
    38.3993     2854
    38.7013     2772
    39.0033     2743
    39.3053     2691
    39.6073     4651
    39.9092     7431
    40.2112     3487
    40.5132     3155
    40.8152     8194
    41.1172    14903
    41.4192     2859
    41.7212     2779
    42.0232     2737
    42.3252     2732
    42.6272     2676
    42.9292     2679
    43.2312     2789
    43.5332     2621
    43.8352     2643
    44.1372     3757
    44.4392     4901
    44.7412     2714
    45.0432     2593
    45.3452     2820
    45.6472     5180
    45.9492     2739
    46.2512     3688
    46.5532     2891
    46.8552     3105
    47.1572     4968
    47.4592     3360
    47.7612    10542
    48.0632     3168
    48.3652    11793
    48.6671    13154
    48.9691     3019
    49.2711     3033
    49.5731     3701
    49.8751    17527
    50.1771     3739
    50.4791     7459
    50.7811     2905
    51.0831     2970
    51.3851     5547
    51.6871     2871
    51.9891     2847
    52.2911     3173
    52.5931     6784
    52.8951     4972
    53.1971     2772
    53.4991     4211
    53.8011     2783
    54.1031     2787
    54.4051     2902
    54.7071     2746
    55.0091     2944
    55.3111     6773
    55.6131     3181
    55.9151     2849
    56.2171     9277
    56.5191     3625
    56.8211     3914
    57.1231     7620
    57.4250     3311
    57.7270     4610
    58.0290     4041
    58.3310     6148
    58.6330     8947
    58.9350     5342
    59.2370     3112
    59.5390     8449
    59.8410    11178
    60.1430     3129
    60.4450     3926
    60.7470    10222
    61.0490     3729
    61.3510     2634
    61.6530     2616
    61.9550     2561
    62.2570     2572
    62.5590     2494
    62.8610     2512
    63.1630     2559
    63.4650     3889
    63.7670     3191
    64.0690     4167
    64.3710     2682
    64.6730     2609
    64.9750     2661
    65.2770     2517
    65.5790     2457
    65.8810     2380
    66.1829     2455
    66.4849     2511
    66.7869     2450
    67.0889     2494
    67.3909     2491
    67.6929     2508
    67.9949     3757
    68.2969     3728
    68.5989     3178
    68.9009     2540
    69.2029     4592
    69.5049     3458
    69.8069     7357
    70.1089     3287
    70.4109     5220
    70.7129     4582
    71.0149     3866
    71.3169     2989
    71.6189     4534
    71.9209     2761
    72.2229     2649
    72.5249     2954
    72.8269     2928
    73.1289     3788
    73.4309     3637
    73.7329     5644
    74.0349     3076
    74.3369     2464
    74.6388     2372
    74.9408     2456
    75.2428     2482
    75.5448     2530
    75.8468     2767
    76.1488     4871
    76.4508     2953
    76.7528     4244
    77.0548     2709
    77.3568     2583
    77.6588     2781
    77.9608     2866
    78.2628     3517
    78.5648     4206
    78.8668     3461
    79.1688     3275
    79.4708     3546
    79.7728     3358
    80.0748     4201
    80.3768     5267
    80.6788     3496
    80.9808     3205
    81.2828     2573
    81.5848     2873
    81.8868     2917
    82.1888     2855
    82.4908     3037
    82.7928     2639
    83.0947     2759
    83.3967     3425
    83.6987     2532
    84.0007     2523
    84.3027     2625
    84.6047     2551
    84.9067     2572
    85.2087     3261
    85.5107     3350
    85.8127     2521
    86.1147     2931
    86.4167     2714
    86.7187     2612
    87.0207     3046
    87.3227     2861
    87.6247     3499
    87.9267     3243
    88.2287     2887
    88.5307     2633
    88.8327     2944
    89.1347     2892
    89.4367     2579
    89.7387     3513
    90.0407     3717
    90.3427     3120
    90.6447     2906
    90.9467     2840
    91.2487     2995
    91.5507     3514
    91.8526     2967
    92.1546     2956
    92.4566     3599
    92.7586     2903
    93.0606     2367
    93.3626     2552
    93.6646     2792
    93.9666     2633
    94.2686     3075
    94.5706     2797
    94.8726     2489
    95.1746     2350
    95.4766     2471
    95.7786     2598
    96.0806     2582
    96.3826     3490
    96.6846     3205
    96.9866     2647
    97.2886     3043
    97.5906     2786
    97.8926     2434
    98.1946     3033
    98.4966     3623
    98.7986     4214
    99.1006     3976
    99.4026     3286
    99.7046     3047
    99.9934     2871