File: powder_X-ray_diffraction/variable-temperature_experiments/NaTaO2F2/raw_data/280°C.XY
! Initial file:   D:\ZAKARY_OUAIL\MA_THESE\Deuxième_année_de_thèse\DRX\Manips_DRX\1st_NaTaO2F2_XRK900\NaTaO2F2-Lent_280°C.xrdml
! Initial format:  58
! WAVE (A):      1.54060     1.54060     1.00000
! REM : data have been multiplied by     1.0000
! X_data : 2 Theta (deg.)
! Y_data : Intensity (arb. units)
!     X         Y
!--------------------------------------------------------------------------------
    10.0116     6236
    10.3136     6426
    10.6156     6037
    10.9176     6778
    11.2196     8837
    11.5216     5896
    11.8236     5566
    12.1256     5677
    12.4276     5323
    12.7296     5231
    13.0316     5303
    13.3336     5171
    13.6356     5212
    13.9376     4958
    14.2395     4996
    14.5415     4810
    14.8435     4973
    15.1455     4643
    15.4475     4609
    15.7495     4617
    16.0515     4638
    16.3535     4797
    16.6555     4469
    16.9575     4439
    17.2595     4605
    17.5615     4275
    17.8635     4287
    18.1655     4142
    18.4675     4023
    18.7695     4089
    19.0715     4483
    19.3735     4978
    19.6755   100411
    19.9775     4536
    20.2795     4115
    20.5815     3954
    20.8835     3843
    21.1855     3819
    21.4875     3788
    21.7895     4083
    22.0915     3805
    22.3935    12918
    22.6954     3810
    22.9974     3688
    23.2994     3520
    23.6014     3838
    23.9034     4243
    24.2054    42408
    24.5074     6081
    24.8094     3628
    25.1114     3510
    25.4134     3648
    25.7154     3476
    26.0174     3507
    26.3194     3631
    26.6214     3437
    26.9234     3772
    27.2254     3526
    27.5274     6074
    27.8294     9623
    28.1314     3638
    28.4334     3526
    28.7354     3637
    29.0374     4126
    29.3394    21990
    29.6414     3498
    29.9434     3450
    30.2454     3245
    30.5474     3171
    30.8494     3129
    31.1514     3230
    31.4533     3133
    31.7553     3187
    32.0573     3249
    32.3593     3281
    32.6613    12323
    32.9633     3429
    33.2653    26269
    33.5673    17464
    33.8693    10039
    34.1713     3124
    34.4733     4246
    34.7753     3332
    35.0773     2960
    35.3793     2953
    35.6813     2908
    35.9833     2919
    36.2853     3031
    36.5873     3446
    36.8893     3135
    37.1913     5346
    37.4933     3103
    37.7953     2898
    38.0973     2814
    38.3993     2746
    38.7013     2732
    39.0033     2837
    39.3053     2698
    39.6073     4603
    39.9092     6856
    40.2112     3522
    40.5132     3249
    40.8152     9818
    41.1172    16588
    41.4192     2898
    41.7212     2720
    42.0232     2794
    42.3252     2615
    42.6272     2665
    42.9292     2635
    43.2312     2825
    43.5332     2689
    43.8352     2654
    44.1372     3575
    44.4392     4327
    44.7412     2730
    45.0432     2577
    45.3452     2841
    45.6472     4906
    45.9492     2794
    46.2512     3806
    46.5532     2845
    46.8552     3249
    47.1572     4191
    47.4592     3393
    47.7612    11202
    48.0632     3200
    48.3652    11306
    48.6671    13137
    48.9691     3095
    49.2711     2921
    49.5731     3501
    49.8751    18436
    50.1771     3779
    50.4791     7271
    50.7811     2944
    51.0831     3099
    51.3851     4656
    51.6871     2778
    51.9891     2784
    52.2911     3147
    52.5931     6777
    52.8951     4668
    53.1971     2828
    53.4991     4145
    53.8011     2781
    54.1031     2766
    54.4051     2816
    54.7071     2691
    55.0091     3111
    55.3111     5797
    55.6131     3110
    55.9151     2940
    56.2171     9724
    56.5191     3445
    56.8211     4511
    57.1231     8311
    57.4250     3163
    57.7270     5136
    58.0290     3930
    58.3310     7310
    58.6330     7259
    58.9350     4845
    59.2370     2982
    59.5390     8172
    59.8410    10993
    60.1430     3113
    60.4450     4456
    60.7470     9442
    61.0490     3589
    61.3510     2689
    61.6530     2666
    61.9550     2571
    62.2570     2581
    62.5590     2525
    62.8610     2596
    63.1630     2636
    63.4650     3657
    63.7670     3530
    64.0690     3975
    64.3710     2549
    64.6730     2690
    64.9750     2520
    65.2770     2393
    65.5790     2414
    65.8810     2401
    66.1829     2401
    66.4849     2434
    66.7869     2504
    67.0889     2398
    67.3909     2538
    67.6929     2497
    67.9949     3809
    68.2969     4640
    68.5989     2674
    68.9009     2488
    69.2029     4397
    69.5049     3475
    69.8069     7034
    70.1089     3112
    70.4109     5182
    70.7129     4296
    71.0149     4256
    71.3169     2995
    71.6189     4414
    71.9209     2812
    72.2229     2630
    72.5249     3017
    72.8269     3150
    73.1289     3959
    73.4309     3688
    73.7329     5509
    74.0349     2746
    74.3369     2410
    74.6388     2392
    74.9408     2484
    75.2428     2612
    75.5448     2566
    75.8468     2777
    76.1488     4512
    76.4508     2840
    76.7528     3790
    77.0548     2615
    77.3568     2602
    77.6588     2757
    77.9608     2915
    78.2628     3499
    78.5648     4320
    78.8668     3277
    79.1688     3491
    79.4708     3307
    79.7728     3687
    80.0748     4717
    80.3768     5715
    80.6788     3539
    80.9808     3098
    81.2828     2513
    81.5848     2822
    81.8868     2974
    82.1888     2719
    82.4908     2976
    82.7928     2647
    83.0947     2788
    83.3967     3131
    83.6987     2534
    84.0007     2431
    84.3027     2563
    84.6047     2570
    84.9067     2574
    85.2087     3273
    85.5107     3331
    85.8127     2621
    86.1147     2850
    86.4167     2678
    86.7187     2634
    87.0207     3361
    87.3227     2993
    87.6247     3758
    87.9267     3213
    88.2287     2992
    88.5307     2684
    88.8327     3209
    89.1347     2871
    89.4367     2503
    89.7387     3556
    90.0407     3637
    90.3427     2886
    90.6447     2942
    90.9467     2950
    91.2487     2931
    91.5507     3413
    91.8526     2846
    92.1546     2797
    92.4566     3324
    92.7586     2724
    93.0606     2407
    93.3626     2692
    93.6646     2839
    93.9666     2574
    94.2686     2966
    94.5706     2835
    94.8726     2474
    95.1746     2407
    95.4766     2560
    95.7786     2479
    96.0806     2558
    96.3826     3175
    96.6846     3156
    96.9866     2586
    97.2886     3200
    97.5906     2865
    97.8926     2550
    98.1946     3060
    98.4966     3473
    98.7986     4239
    99.1006     3862
    99.4026     3231
    99.7046     3226
    99.9934     2753