File: powder_X-ray_diffraction/variable-temperature_experiments/NaTaO2F2/raw_data/290°C.XY
! Initial file:   D:\ZAKARY_OUAIL\MA_THESE\Deuxième_année_de_thèse\DRX\Manips_DRX\1st_NaTaO2F2_XRK900\NaTaO2F2-Lent_290°C.xrdml
! Initial format:  58
! WAVE (A):      1.54060     1.54060     1.00000
! REM : data have been multiplied by     1.0000
! X_data : 2 Theta (deg.)
! Y_data : Intensity (arb. units)
!     X         Y
!--------------------------------------------------------------------------------
    10.0116     6293
    10.3136     6224
    10.6156     5816
    10.9176     6692
    11.2196     8940
    11.5216     5785
    11.8236     5625
    12.1256     5626
    12.4276     5590
    12.7296     5340
    13.0316     5111
    13.3336     5166
    13.6356     5183
    13.9376     5024
    14.2395     5006
    14.5415     4793
    14.8435     4742
    15.1455     4745
    15.4475     4635
    15.7495     4636
    16.0515     4581
    16.3535     4678
    16.6555     4520
    16.9575     4650
    17.2595     4608
    17.5615     4304
    17.8635     4343
    18.1655     4215
    18.4675     4205
    18.7695     4090
    19.0715     4570
    19.3735     4901
    19.6755    97997
    19.9775     4561
    20.2795     4067
    20.5815     3824
    20.8835     3945
    21.1855     3899
    21.4875     3679
    21.7895     4075
    22.0915     3911
    22.3935    12443
    22.6954     3789
    22.9974     3684
    23.2994     3702
    23.6014     3881
    23.9034     4270
    24.2054    42851
    24.5074     5908
    24.8094     3671
    25.1114     3620
    25.4134     3645
    25.7154     3344
    26.0174     3393
    26.3194     3623
    26.6214     3503
    26.9234     3644
    27.2254     3632
    27.5274     6250
    27.8294     8679
    28.1314     3614
    28.4334     3611
    28.7354     3481
    29.0374     4096
    29.3394    22605
    29.6414     3502
    29.9434     3384
    30.2454     3336
    30.5474     3207
    30.8494     3216
    31.1514     3186
    31.4533     3106
    31.7553     3106
    32.0573     3151
    32.3593     3332
    32.6613    12825
    32.9633     3620
    33.2653    25581
    33.5673    20860
    33.8693     9614
    34.1713     3154
    34.4733     4532
    34.7753     3217
    35.0773     2974
    35.3793     2917
    35.6813     2911
    35.9833     2937
    36.2853     2992
    36.5873     3597
    36.8893     3146
    37.1913     6267
    37.4933     3166
    37.7953     2826
    38.0973     2755
    38.3993     2811
    38.7013     2776
    39.0033     2884
    39.3053     2763
    39.6073     4749
    39.9092     6228
    40.2112     3618
    40.5132     3129
    40.8152    11106
    41.1172    16495
    41.4192     2902
    41.7212     2742
    42.0232     2767
    42.3252     2642
    42.6272     2698
    42.9292     2687
    43.2312     2864
    43.5332     2621
    43.8352     2776
    44.1372     3450
    44.4392     3950
    44.7412     2719
    45.0432     2644
    45.3452     2823
    45.6472     4959
    45.9492     2764
    46.2512     3715
    46.5532     2965
    46.8552     3290
    47.1572     3680
    47.4592     3577
    47.7612    12131
    48.0632     3141
    48.3652    11136
    48.6671    12550
    48.9691     2981
    49.2711     3052
    49.5731     3666
    49.8751    18884
    50.1771     3908
    50.4791     6411
    50.7811     2952
    51.0831     3224
    51.3851     4162
    51.6871     2823
    51.9891     2895
    52.2911     3207
    52.5931     6776
    52.8951     4603
    53.1971     2867
    53.4991     4138
    53.8011     2793
    54.1031     2901
    54.4051     2798
    54.7071     2720
    55.0091     3006
    55.3111     5798
    55.6131     2919
    55.9151     2903
    56.2171    10333
    56.5191     3308
    56.8211     5258
    57.1231     8089
    57.4250     3148
    57.7270     5824
    58.0290     4059
    58.3310     8470
    58.6330     5754
    58.9350     5267
    59.2370     3064
    59.5390     7135
    59.8410    10808
    60.1430     3138
    60.4450     4914
    60.7470     8090
    61.0490     3748
    61.3510     2698
    61.6530     2622
    61.9550     2595
    62.2570     2511
    62.5590     2447
    62.8610     2533
    63.1630     2696
    63.4650     3389
    63.7670     3842
    64.0690     3956
    64.3710     2553
    64.6730     2826
    64.9750     2579
    65.2770     2429
    65.5790     2501
    65.8810     2386
    66.1829     2481
    66.4849     2456
    66.7869     2478
    67.0889     2387
    67.3909     2578
    67.6929     2543
    67.9949     4065
    68.2969     5170
    68.5989     2735
    68.9009     2538
    69.2029     4264
    69.5049     3119
    69.8069     6483
    70.1089     3097
    70.4109     5235
    70.7129     3971
    71.0149     5007
    71.3169     2913
    71.6189     4111
    71.9209     2646
    72.2229     2782
    72.5249     3130
    72.8269     3518
    73.1289     4251
    73.4309     3483
    73.7329     4651
    74.0349     2773
    74.3369     2596
    74.6388     2467
    74.9408     2402
    75.2428     2515
    75.5448     2588
    75.8468     2776
    76.1488     4350
    76.4508     2836
    76.7528     3284
    77.0548     2578
    77.3568     2629
    77.6588     2774
    77.9608     2843
    78.2628     3527
    78.5648     4480
    78.8668     3115
    79.1688     3842
    79.4708     3289
    79.7728     4183
    80.0748     5172
    80.3768     5521
    80.6788     3581
    80.9808     3036
    81.2828     2550
    81.5848     3317
    81.8868     3156
    82.1888     2715
    82.4908     2859
    82.7928     2479
    83.0947     2852
    83.3967     2880
    83.6987     2551
    84.0007     2457
    84.3027     2719
    84.6047     2546
    84.9067     2658
    85.2087     3537
    85.5107     3128
    85.8127     2569
    86.1147     2591
    86.4167     2681
    86.7187     2702
    87.0207     3481
    87.3227     2885
    87.6247     3438
    87.9267     3388
    88.2287     3099
    88.5307     2566
    88.8327     3344
    89.1347     3101
    89.4367     2522
    89.7387     3671
    90.0407     3459
    90.3427     2691
    90.6447     3105
    90.9467     2976
    91.2487     2942
    91.5507     3159
    91.8526     2872
    92.1546     2979
    92.4566     3025
    92.7586     2680
    93.0606     2439
    93.3626     2729
    93.6646     2936
    93.9666     2675
    94.2686     2977
    94.5706     2765
    94.8726     2543
    95.1746     2490
    95.4766     2464
    95.7786     2543
    96.0806     2506
    96.3826     3241
    96.6846     2972
    96.9866     2482
    97.2886     3415
    97.5906     2912
    97.8926     2539
    98.1946     2959
    98.4966     3312
    98.7986     4359
    99.1006     3563
    99.4026     3141
    99.7046     3443
    99.9934     2817