File: powder_X-ray_diffraction/variable-temperature_experiments/NaTaO2F2/raw_data/40°C.XY
! Initial file:   D:\ZAKARY_OUAIL\MA_THESE\Deuxième_année_de_thèse\DRX\Manips_DRX\1st_NaTaO2F2_XRK900\NaTaO2F2-Lent_40°C.xrdml
! Initial format:  58
! WAVE (A):      1.54060     1.54060     1.00000
! REM : data have been multiplied by     1.0000
! X_data : 2 Theta (deg.)
! Y_data : Intensity (arb. units)
!     X         Y
!--------------------------------------------------------------------------------
    10.0116     7369
    10.3136     7091
    10.6156     7078
    10.9176     7500
    11.2196    13099
    11.5216     6784
    11.8236     6566
    12.1256     6635
    12.4276     6259
    12.7296     6149
    13.0316     6193
    13.3336     5978
    13.6356     5701
    13.9376     5771
    14.2395     5687
    14.5415     5636
    14.8435     5554
    15.1455     5370
    15.4475     5271
    15.7495     5286
    16.0515     5179
    16.3535     5218
    16.6555     5259
    16.9575     5023
    17.2595     5063
    17.5615     4737
    17.8635     4867
    18.1655     4643
    18.4675     4532
    18.7695     4515
    19.0715     4706
    19.3735     4896
    19.6755    30197
    19.9775     5387
    20.2795     4848
    20.5815     4467
    20.8835     4395
    21.1855     4244
    21.4875     4253
    21.7895     4087
    22.0915     4285
    22.3935    20253
    22.6954     4161
    22.9974     3925
    23.2994     3894
    23.6014     3994
    23.9034     4341
    24.2054    36809
    24.5074    37558
    24.8094     3928
    25.1114     3980
    25.4134     3747
    25.7154     3782
    26.0174     3765
    26.3194     3596
    26.6214     3465
    26.9234     3531
    27.2254     3682
    27.5274     4372
    27.8294    70388
    28.1314     4038
    28.4334     3976
    28.7354     3642
    29.0374     3801
    29.3394    32254
    29.6414     6733
    29.9434     3384
    30.2454     3410
    30.5474     3297
    30.8494     3190
    31.1514     3182
    31.4533     3105
    31.7553     3170
    32.0573     3140
    32.3593     3316
    32.6613     3572
    32.9633    10606
    33.2653    19030
    33.5673     3984
    33.8693    30960
    34.1713     3321
    34.4733     3191
    34.7753     9679
    35.0773     3467
    35.3793     2904
    35.6813     2927
    35.9833     2923
    36.2853     2953
    36.5873     3233
    36.8893     2975
    37.1913     2915
    37.4933    10080
    37.7953     3783
    38.0973     2859
    38.3993     2731
    38.7013     2707
    39.0033     2791
    39.3053     2788
    39.6073     2751
    39.9092     4088
    40.2112     5208
    40.5132     4805
    40.8152     2850
    41.1172    10616
    41.4192    14371
    41.7212     2925
    42.0232     2654
    42.3252     2688
    42.6272     2674
    42.9292     2650
    43.2312     2584
    43.5332     3419
    43.8352     2609
    44.1372     2674
    44.4392     3251
    44.7412     5651
    45.0432     2587
    45.3452     2620
    45.6472     3029
    45.9492     3374
    46.2512     2938
    46.5532     3049
    46.8552     2616
    47.1572     3012
    47.4592     5108
    47.7612     3506
    48.0632    11653
    48.3652     3468
    48.6671     6978
    48.9691     6240
    49.2711     2701
    49.5731     3402
    49.8751     3303
    50.1771    10270
    50.4791     3232
    50.7811     6708
    51.0831     2870
    51.3851     2801
    51.6871     4851
    51.9891     3071
    52.2911     2669
    52.5931     8715
    52.8951     2966
    53.1971     4178
    53.4991     2862
    53.8011     2936
    54.1031     2460
    54.4051     2604
    54.7071     2725
    55.0091     2526
    55.3111     2739
    55.6131     6126
    55.9151     3686
    56.2171     3133
    56.5191     9161
    56.8211     3819
    57.1231     3133
    57.4250     7058
    57.7270     3463
    58.0290     7486
    58.3310     3849
    58.6330     3005
    58.9350     7210
    59.2370     4532
    59.5390     4996
    59.8410    10370
    60.1430     7118
    60.4450     2695
    60.7470     3864
    61.0490     7784
    61.3510     5838
    61.6530     2545
    61.9550     2533
    62.2570     2391
    62.5590     2465
    62.8610     2363
    63.1630     2370
    63.4650     2434
    63.7670     3372
    64.0690     2680
    64.3710     5050
    64.6730     2505
    64.9750     2422
    65.2770     2605
    65.5790     2363
    65.8810     2295
    66.1829     2271
    66.4849     2252
    66.7869     2476
    67.0889     2336
    67.3909     2269
    67.6929     2340
    67.9949     2527
    68.2969     2783
    68.5989     2694
    68.9009     3343
    69.2029     3101
    69.5049     3072
    69.8069     3699
    70.1089     4181
    70.4109     3503
    70.7129     3999
    71.0149     2789
    71.3169     4356
    71.6189     3447
    71.9209     2999
    72.2229     3404
    72.5249     2461
    72.8269     3107
    73.1289     3224
    73.4309     3375
    73.7329     3726
    74.0349     3193
    74.3369     4804
    74.6388     3658
    74.9408     2356
    75.2428     2347
    75.5448     2324
    75.8468     2413
    76.1488     2634
    76.4508     3447
    76.7528     3600
    77.0548     2462
    77.3568     4442
    77.6588     3159
    77.9608     2709
    78.2628     2597
    78.5648     3418
    78.8668     3507
    79.1688     3747
    79.4708     3315
    79.7728     2964
    80.0748     2751
    80.3768     5190
    80.6788     5002
    80.9808     3387
    81.2828     3637
    81.5848     3020
    81.8868     2426
    82.1888     3001
    82.4908     3373
    82.7928     2661
    83.0947     2532
    83.3967     2313
    83.6987     2582
    84.0007     3014
    84.3027     2404
    84.6047     2412
    84.9067     2346
    85.2087     2406
    85.5107     2748
    85.8127     3922
    86.1147     3491
    86.4167     2573
    86.7187     2688
    87.0207     2751
    87.3227     2982
    87.6247     2722
    87.9267     3337
    88.2287     3042
    88.5307     2823
    88.8327     3660
    89.1347     2986
    89.4367     2615
    89.7387     2467
    90.0407     2979
    90.3427     2795
    90.6447     3084
    90.9467     2846
    91.2487     3005
    91.5507     3823
    91.8526     3935
    92.1546     3178
    92.4566     2628
    92.7586     2774
    93.0606     2976
    93.3626     2663
    93.6646     2371
    93.9666     2304
    94.2686     2473
    94.5706     2909
    94.8726     2732
    95.1746     3078
    95.4766     2714
    95.7786     2270
    96.0806     2312
    96.3826     2333
    96.6846     2454
    96.9866     2732
    97.2886     3510
    97.5906     3667
    97.8926     3011
    98.1946     2647
    98.4966     2302
    98.7986     2656
    99.1006     3934
    99.4026     3212
    99.7046     3347
    99.9934     3055