File: powder_X-ray_diffraction/variable-temperature_experiments/NaTaO2F2/raw_data/60°C.XY
! Initial file:   D:\ZAKARY_OUAIL\MA_THESE\Deuxième_année_de_thèse\DRX\Manips_DRX\1st_NaTaO2F2_XRK900\NaTaO2F2-Lent_60°C.xrdml
! Initial format:  58
! WAVE (A):      1.54060     1.54060     1.00000
! REM : data have been multiplied by     1.0000
! X_data : 2 Theta (deg.)
! Y_data : Intensity (arb. units)
!     X         Y
!--------------------------------------------------------------------------------
    10.0116     7304
    10.3136     7177
    10.6156     6969
    10.9176     7485
    11.2196    12633
    11.5216     6844
    11.8236     6496
    12.1256     6094
    12.4276     6178
    12.7296     6144
    13.0316     6019
    13.3336     5876
    13.6356     5884
    13.9376     5544
    14.2395     5733
    14.5415     5517
    14.8435     5324
    15.1455     5227
    15.4475     5291
    15.7495     5073
    16.0515     5154
    16.3535     5213
    16.6555     4884
    16.9575     4830
    17.2595     5089
    17.5615     4774
    17.8635     4858
    18.1655     4672
    18.4675     4434
    18.7695     4627
    19.0715     4791
    19.3735     4870
    19.6755    38143
    19.9775     5434
    20.2795     4781
    20.5815     4275
    20.8835     4258
    21.1855     4145
    21.4875     4112
    21.7895     4157
    22.0915     4117
    22.3935    20595
    22.6954     4048
    22.9974     3911
    23.2994     3907
    23.6014     3976
    23.9034     4291
    24.2054    39088
    24.5074    35380
    24.8094     3895
    25.1114     3792
    25.4134     3738
    25.7154     3782
    26.0174     3797
    26.3194     3543
    26.6214     3483
    26.9234     3792
    27.2254     3798
    27.5274     4416
    27.8294    64869
    28.1314     3800
    28.4334     3978
    28.7354     3594
    29.0374     3699
    29.3394    28917
    29.6414     5532
    29.9434     3308
    30.2454     3375
    30.5474     3376
    30.8494     3182
    31.1514     3138
    31.4533     3122
    31.7553     3205
    32.0573     3098
    32.3593     3219
    32.6613     3721
    32.9633     7080
    33.2653    22367
    33.5673     4133
    33.8693    31502
    34.1713     3408
    34.4733     3078
    34.7753    13693
    35.0773     3664
    35.3793     3009
    35.6813     2894
    35.9833     2872
    36.2853     3013
    36.5873     3355
    36.8893     3104
    37.1913     2985
    37.4933     9520
    37.7953     3414
    38.0973     2785
    38.3993     2695
    38.7013     2799
    39.0033     2666
    39.3053     2728
    39.6073     2718
    39.9092     3799
    40.2112     5340
    40.5132     4469
    40.8152     2887
    41.1172    10935
    41.4192    10580
    41.7212     2814
    42.0232     2622
    42.3252     2649
    42.6272     2584
    42.9292     2671
    43.2312     2589
    43.5332     3439
    43.8352     2652
    44.1372     2728
    44.4392     3110
    44.7412     4837
    45.0432     2537
    45.3452     2531
    45.6472     3176
    45.9492     3268
    46.2512     2912
    46.5532     3022
    46.8552     2616
    47.1572     3162
    47.4592     3839
    47.7612     3754
    48.0632    11353
    48.3652     3739
    48.6671     6405
    48.9691     7210
    49.2711     2811
    49.5731     3377
    49.8751     3277
    50.1771    11816
    50.4791     3214
    50.7811     6085
    51.0831     2735
    51.3851     2883
    51.6871     4314
    51.9891     3045
    52.2911     2805
    52.5931     9498
    52.8951     2940
    53.1971     4156
    53.4991     3007
    53.8011     2979
    54.1031     2586
    54.4051     2611
    54.7071     2618
    55.0091     2579
    55.3111     2697
    55.6131    10165
    55.9151     3574
    56.2171     3089
    56.5191    10190
    56.8211     3307
    57.1231     3273
    57.4250     8157
    57.7270     3140
    58.0290     6010
    58.3310     3785
    58.6330     3336
    58.9350    10160
    59.2370     5684
    59.5390     3619
    59.8410    10942
    60.1430     6574
    60.4450     2749
    60.7470     4621
    61.0490     6107
    61.3510     5053
    61.6530     2570
    61.9550     2568
    62.2570     2441
    62.5590     2403
    62.8610     2386
    63.1630     2414
    63.4650     2384
    63.7670     4013
    64.0690     2599
    64.3710     4176
    64.6730     2574
    64.9750     2481
    65.2770     2600
    65.5790     2353
    65.8810     2418
    66.1829     2321
    66.4849     2374
    66.7869     2715
    67.0889     2248
    67.3909     2230
    67.6929     2454
    67.9949     2531
    68.2969     2833
    68.5989     2787
    68.9009     5409
    69.2029     2692
    69.5049     3233
    69.8069     3273
    70.1089     4083
    70.4109     3702
    70.7129     4186
    71.0149     2790
    71.3169     4656
    71.6189     3060
    71.9209     3135
    72.2229     3065
    72.5249     2503
    72.8269     3718
    73.1289     2912
    73.4309     3082
    73.7329     4298
    74.0349     2854
    74.3369     5216
    74.6388     2741
    74.9408     2493
    75.2428     2313
    75.5448     2315
    75.8468     2513
    76.1488     2643
    76.4508     3911
    76.7528     3505
    77.0548     2594
    77.3568     3737
    77.6588     3184
    77.9608     2634
    78.2628     2596
    78.5648     3580
    78.8668     3689
    79.1688     3867
    79.4708     3265
    79.7728     2889
    80.0748     2752
    80.3768     6083
    80.6788     5383
    80.9808     3428
    81.2828     3357
    81.5848     2803
    81.8868     2433
    82.1888     3186
    82.4908     3072
    82.7928     2498
    83.0947     2423
    83.3967     2373
    83.6987     2671
    84.0007     2666
    84.3027     2398
    84.6047     2389
    84.9067     2419
    85.2087     2345
    85.5107     2787
    85.8127     3910
    86.1147     3289
    86.4167     2446
    86.7187     3042
    87.0207     2805
    87.3227     3061
    87.6247     2726
    87.9267     2903
    88.2287     2939
    88.5307     2813
    88.8327     2844
    89.1347     2731
    89.4367     2596
    89.7387     2422
    90.0407     2974
    90.3427     2968
    90.6447     2951
    90.9467     2753
    91.2487     2760
    91.5507     3261
    91.8526     3918
    92.1546     3390
    92.4566     2637
    92.7586     2695
    93.0606     3498
    93.3626     2799
    93.6646     2358
    93.9666     2257
    94.2686     2544
    94.5706     2724
    94.8726     2764
    95.1746     2812
    95.4766     2488
    95.7786     2451
    96.0806     2233
    96.3826     2288
    96.6846     2353
    96.9866     2849
    97.2886     2975
    97.5906     3022
    97.8926     3146
    98.1946     2583
    98.4966     2373
    98.7986     3138
    99.1006     4372
    99.4026     3257
    99.7046     3442
    99.9934     3024