File: powder_X-ray_diffraction/variable-temperature_experiments/NaTaO2F2/raw_data/80°C.XY
! Initial file:   D:\ZAKARY_OUAIL\MA_THESE\Deuxième_année_de_thèse\DRX\Manips_DRX\1st_NaTaO2F2_XRK900\NaTaO2F2-Lent_80°C.xrdml
! Initial format:  58
! WAVE (A):      1.54060     1.54060     1.00000
! REM : data have been multiplied by     1.0000
! X_data : 2 Theta (deg.)
! Y_data : Intensity (arb. units)
!     X         Y
!--------------------------------------------------------------------------------
    10.0116     7130
    10.3136     7063
    10.6156     6882
    10.9176     7552
    11.2196    12620
    11.5216     6592
    11.8236     6330
    12.1256     6258
    12.4276     6137
    12.7296     5921
    13.0316     5856
    13.3336     5789
    13.6356     5643
    13.9376     5607
    14.2395     5491
    14.5415     5384
    14.8435     5202
    15.1455     5229
    15.4475     5191
    15.7495     5241
    16.0515     5092
    16.3535     5133
    16.6555     4813
    16.9575     4904
    17.2595     5049
    17.5615     4663
    17.8635     4669
    18.1655     4568
    18.4675     4455
    18.7695     4466
    19.0715     4747
    19.3735     5010
    19.6755    48593
    19.9775     5130
    20.2795     4824
    20.5815     4358
    20.8835     4265
    21.1855     4162
    21.4875     4086
    21.7895     4092
    22.0915     4033
    22.3935    20167
    22.6954     3969
    22.9974     3986
    23.2994     3913
    23.6014     4010
    23.9034     4239
    24.2054    41862
    24.5074    31974
    24.8094     3876
    25.1114     3855
    25.4134     3616
    25.7154     3693
    26.0174     3583
    26.3194     3540
    26.6214     3544
    26.9234     3784
    27.2254     3792
    27.5274     4462
    27.8294    61207
    28.1314     3926
    28.4334     3903
    28.7354     3539
    29.0374     3785
    29.3394    26542
    29.6414     4763
    29.9434     3470
    30.2454     3339
    30.5474     3263
    30.8494     3176
    31.1514     3197
    31.4533     3037
    31.7553     3192
    32.0573     3149
    32.3593     3269
    32.6613     3706
    32.9633     5432
    33.2653    25355
    33.5673     4171
    33.8693    31387
    34.1713     3275
    34.4733     3255
    34.7753    13747
    35.0773     3830
    35.3793     3036
    35.6813     2920
    35.9833     2908
    36.2853     2951
    36.5873     3299
    36.8893     3142
    37.1913     3092
    37.4933     8151
    37.7953     3250
    38.0973     2835
    38.3993     2704
    38.7013     2776
    39.0033     2920
    39.3053     2705
    39.6073     2831
    39.9092     3529
    40.2112     5528
    40.5132     4312
    40.8152     3004
    41.1172     9035
    41.4192     7889
    41.7212     2752
    42.0232     2680
    42.3252     2573
    42.6272     2591
    42.9292     2623
    43.2312     2626
    43.5332     3153
    43.8352     2595
    44.1372     2750
    44.4392     2952
    44.7412     4131
    45.0432     2695
    45.3452     2671
    45.6472     3362
    45.9492     3013
    46.2512     2916
    46.5532     2984
    46.8552     2686
    47.1572     3545
    47.4592     3348
    47.7612     3952
    48.0632     9093
    48.3652     4195
    48.6671     5662
    48.9691     8167
    49.2711     2825
    49.5731     3291
    49.8751     3476
    50.1771    12964
    50.4791     3326
    50.7811     6849
    51.0831     2751
    51.3851     2907
    51.6871     5781
    51.9891     2852
    52.2911     2840
    52.5931    10591
    52.8951     2990
    53.1971     4192
    53.4991     2935
    53.8011     2883
    54.1031     2701
    54.4051     2742
    54.7071     2757
    55.0091     2554
    55.3111     2766
    55.6131    11318
    55.9151     3648
    56.2171     3124
    56.5191     9160
    56.8211     3070
    57.1231     3702
    57.4250     9457
    57.7270     3139
    58.0290     5150
    58.3310     3337
    58.6330     3671
    58.9350    11421
    59.2370     8691
    59.5390     3284
    59.8410     9796
    60.1430     5791
    60.4450     2808
    60.7470     6225
    61.0490     6657
    61.3510     4098
    61.6530     2591
    61.9550     2594
    62.2570     2245
    62.5590     2434
    62.8610     2420
    63.1630     2367
    63.4650     2401
    63.7670     4026
    64.0690     2584
    64.3710     3594
    64.6730     2398
    64.9750     2431
    65.2770     2692
    65.5790     2343
    65.8810     2455
    66.1829     2381
    66.4849     2381
    66.7869     2563
    67.0889     2395
    67.3909     2370
    67.6929     2348
    67.9949     2677
    68.2969     2837
    68.5989     2688
    68.9009     3843
    69.2029     2644
    69.5049     3311
    69.8069     3272
    70.1089     4247
    70.4109     4038
    70.7129     4258
    71.0149     2975
    71.3169     6009
    71.6189     2913
    71.9209     3338
    72.2229     2783
    72.5249     2540
    72.8269     4238
    73.1289     2720
    73.4309     3349
    73.7329     4226
    74.0349     2844
    74.3369     4311
    74.6388     2461
    74.9408     2394
    75.2428     2291
    75.5448     2307
    75.8468     2441
    76.1488     2688
    76.4508     4688
    76.7528     3129
    77.0548     2661
    77.3568     3026
    77.6588     3207
    77.9608     2666
    78.2628     2723
    78.5648     3575
    78.8668     3376
    79.1688     3934
    79.4708     3310
    79.7728     3189
    80.0748     2786
    80.3768     6262
    80.6788     5948
    80.9808     3326
    81.2828     3357
    81.5848     2740
    81.8868     2461
    82.1888     3453
    82.4908     3276
    82.7928     2645
    83.0947     2429
    83.3967     2339
    83.6987     2617
    84.0007     2554
    84.3027     2410
    84.6047     2342
    84.9067     2311
    85.2087     2369
    85.5107     3055
    85.8127     3894
    86.1147     2958
    86.4167     2442
    86.7187     2841
    87.0207     2787
    87.3227     3189
    87.6247     2808
    87.9267     2794
    88.2287     2895
    88.5307     2981
    88.8327     2544
    89.1347     2853
    89.4367     2673
    89.7387     2593
    90.0407     2684
    90.3427     3233
    90.6447     3170
    90.9467     2842
    91.2487     2788
    91.5507     2989
    91.8526     3618
    92.1546     3198
    92.4566     2661
    92.7586     2582
    93.0606     3636
    93.3626     2978
    93.6646     2430
    93.9666     2356
    94.2686     3042
    94.5706     2959
    94.8726     3128
    95.1746     2795
    95.4766     2397
    95.7786     2336
    96.0806     2308
    96.3826     2384
    96.6846     2424
    96.9866     3112
    97.2886     2942
    97.5906     2824
    97.8926     3307
    98.1946     2735
    98.4966     2322
    98.7986     3545
    99.1006     4537
    99.4026     3429
    99.7046     3679
    99.9934     3317