File: powder_X-ray_diffraction/variable-temperature_experiments/NaNbO2F2/raw_data/100°C.XY
! Initial file:   D:\ZAKARY_OUAIL\MA_THESE\Deuxième_année_de_thèse\DRX\Affinement_DRX\Fullprof\Thermodiff3-nuit_NaNbO2F2\100°C\NaNbO2F2-Lent_100°C - Copie.xrdml
! Initial format:  58
! WAVE (A):      1.54060     1.54060     1.00000
! REM : data have been multiplied by     1.0000
! X_data : 2 Theta (deg.)
! Y_data : Intensity (arb. units)
!     X         Y
!--------------------------------------------------------------------------------
    10.0116     7952
    10.3136     8152
    10.6156     7961
    10.9176     8343
    11.2196    37506
    11.5216     8219
    11.8236     8083
    12.1256     8488
    12.4276     8265
    12.7296     8222
    13.0316     8195
    13.3336     8217
    13.6356     8133
    13.9376     7972
    14.2395     8097
    14.5415     9536
    14.8435     8055
    15.1455     7878
    15.4475     7796
    15.7495     7849
    16.0515     8032
    16.3535     7750
    16.6555     7798
    16.9575     7731
    17.2595     7662
    17.5615     7668
    17.8635     7458
    18.1655     7420
    18.4675     7212
    18.7695     7228
    19.0715     7348
    19.3735     7723
    19.6755     8460
    19.9775    27591
    20.2795     7771
    20.5815     7408
    20.8835     7598
    21.1855     7477
    21.4875     7472
    21.7895     7603
    22.0915     7385
    22.3935     7489
    22.6954    24764
    22.9974     7551
    23.2994     7560
    23.6014     7678
    23.9034    16338
    24.2054    27203
    24.5074     7786
    24.8094     7435
    25.1114     7463
    25.4134     7367
    25.7154     7363
    26.0174     7818
    26.3194     7260
    26.6214     7204
    26.9234     7090
    27.2254     7318
    27.5274     7488
    27.8294     8796
    28.1314    50529
    28.4334     7766
    28.7354     7642
    29.0374    36023
    29.3394    15376
    29.6414     7253
    29.9434     7036
    30.2454     7095
    30.5474     6987
    30.8494     6740
    31.1514     6788
    31.4533     6883
    31.7553     6772
    32.0573     7020
    32.3593     6910
    32.6613     6954
    32.9633     9641
    33.2653     7223
    33.5673     6907
    33.8693    11375
    34.1713     7360
    34.4733     6797
    34.7753     6780
    35.0773     9504
    35.3793     6844
    35.6813     6519
    35.9833     6438
    36.2853     6743
    36.5873     8428
    36.8893     6378
    37.1913     6549
    37.4933     6616
    37.7953    12156
    38.0973     6662
    38.3993     6481
    38.7013     6522
    39.0033     6570
    39.3053     9160
    39.6073     6429
    39.9092     6598
    40.2112     7251
    40.5132     8157
    40.8152     6508
    41.1172     7978
    41.4192     9099
    41.7212     6439
    42.0232     6369
    42.3252     6473
    42.6272     6400
    42.9292     6387
    43.2312     6309
    43.5332     6534
    43.8352     7046
    44.1372     6273
    44.4392     6263
    44.7412    10970
    45.0432     6461
    45.3452     6335
    45.6472     6458
    45.9492     6508
    46.2512    19920
    46.5532     6700
    46.8552     6171
    47.1572     6269
    47.4592     6694
    47.7612    10768
    48.0632     6969
    48.3652    15146
    48.6671     6793
    48.9691     7147
    49.2711     8045
    49.5731     9107
    49.8751     7098
    50.1771    13215
    50.4791     6607
    50.7811     7530
    51.0831     7687
    51.3851     6404
    51.6871     7098
    51.9891     8295
    52.2911     6217
    52.5931     6461
    52.8951     6199
    53.1971     6169
    53.4991     6399
    53.8011     6257
    54.1031     6475
    54.4051     6183
    54.7071     6329
    55.0091     6340
    55.3111     6473
    55.6131     6889
    55.9151     8538
    56.2171     7786
    56.5191     8617
    56.8211     8510
    57.1231     7203
    57.4250     6418
    57.7270     6410
    58.0290    10879
    58.3310     6605
    58.6330     6254
    58.9350     7808
    59.2370    10327
    59.5390     8139
    59.8410     6442
    60.1430    11346
    60.4450     6417
    60.7470     7611
    61.0490     6715
    61.3510     7135
    61.6530    10498
    61.9550     6564
    62.2570     6116
    62.5590     6045
    62.8610     5970
    63.1630     6089
    63.4650     6362
    63.7670     7504
    64.0690     6179
    64.3710     5994
    64.6730     6953
    64.9750     5984
    65.2770     6062
    65.5790     6099
    65.8810     6070
    66.1829     5763
    66.4849     5860
    66.7869     6104
    67.0889     5812
    67.3909     6192
    67.6929     6009
    67.9949     6003
    68.2969     5987
    68.5989     5767
    68.9009     5969
    69.2029     6635
    69.5049     7533
    69.8069     7757
    70.1089     6617
    70.4109     5935
    70.7129     5997
    71.0149     6329
    71.3169     6175
    71.6189     6057
    71.9209     6483
    72.2229     8299
    72.5249     6196
    72.8269     6639
    73.1289     5933
    73.4309     5941
    73.7329     6764
    74.0349     6005
    74.3369     6131
    74.6388     7384
    74.9408     6165
    75.2428     5862
    75.5448     5941
    75.8468     5997
    76.1488     6051
    76.4508     5931
    76.7528     6134
    77.0548     8117
    77.3568     6728
    77.6588     6242
    77.9608     5952
    78.2628     5758
    78.5648     6002
    78.8668     6054
    79.1688     6147
    79.4708     6567
    79.7728     6454
    80.0748     6375
    80.3768     6115
    80.6788     6158
    80.9808     6792
    81.2828     6545
    81.5848     6627
    81.8868     6221
    82.1888     5868
    82.4908     6055
    82.7928     6276
    83.0947     6347
    83.3967     6317
    83.6987     5827
    84.0007     5715
    84.3027     5776
    84.6047     5723
    84.9067     6164
    85.2087     5996
    85.5107     5836
    85.8127     5837
    86.1147     5859
    86.4167     5893
    86.7187     6086
    87.0207     6295
    87.3227     6241
    87.6247     6072
    87.9267     5966
    88.2287     6121
    88.5307     6162
    88.8327     6404
    89.1347     6522
    89.4367     6244
    89.7387     6395
    90.0407     6069
    90.3427     5848
    90.6447     5697
    90.9467     5811
    91.2487     5775
    91.5507     5914
    91.8526     6015
    92.1546     6116
    92.4566     7081
    92.7586     6401
    93.0606     5723
    93.3626     5794
    93.6646     5660
    93.9666     5692
    94.2686     6310
    94.5706     6158
    94.8726     5814
    95.1746     6256
    95.4766     6544
    95.7786     5992
    96.0806     6383
    96.3826     5925
    96.6846     5878
    96.9866     5574
    97.2886     6062
    97.5906     6221
    97.8926     5989
    98.1946     5780
    98.4966     5614
    98.7986     6046
    99.1006     6134
    99.4026     5877
    99.7046     5678
    99.9934     5544