File: powder_X-ray_diffraction/variable-temperature_experiments/NaNbO2F2/raw_data/120°C.XY
! Initial file:   D:\ZAKARY_OUAIL\MA_THESE\Deuxième_année_de_thèse\DRX\Affinement_DRX\Fullprof\Thermodiff3-nuit_NaNbO2F2\120°C\NaNbO2F2-Lent_120°C.xrdml
! Initial format:  58
! WAVE (A):      1.54060     1.54060     1.00000
! REM : data have been multiplied by     1.0000
! X_data : 2 Theta (deg.)
! Y_data : Intensity (arb. units)
!     X         Y
!--------------------------------------------------------------------------------
    10.0116     7994
    10.3136     8088
    10.6156     7896
    10.9176     8337
    11.2196    40012
    11.5216     8312
    11.8236     8290
    12.1256     8346
    12.4276     8496
    12.7296     8228
    13.0316     8165
    13.3336     7991
    13.6356     7995
    13.9376     7981
    14.2395     7999
    14.5415     9606
    14.8435     8085
    15.1455     7905
    15.4475     7853
    15.7495     7780
    16.0515     7735
    16.3535     7770
    16.6555     7712
    16.9575     7597
    17.2595     7616
    17.5615     7506
    17.8635     7600
    18.1655     7447
    18.4675     7271
    18.7695     7338
    19.0715     7332
    19.3735     7699
    19.6755     8778
    19.9775    21882
    20.2795     8072
    20.5815     7666
    20.8835     7334
    21.1855     7595
    21.4875     7419
    21.7895     7544
    22.0915     7489
    22.3935     7706
    22.6954    22775
    22.9974     7247
    23.2994     7517
    23.6014     7763
    23.9034    16309
    24.2054    25668
    24.5074     7341
    24.8094     7506
    25.1114     7455
    25.4134     7291
    25.7154     7282
    26.0174     7407
    26.3194     7146
    26.6214     7250
    26.9234     7259
    27.2254     7402
    27.5274     7534
    27.8294     8873
    28.1314    42008
    28.4334     7848
    28.7354     7753
    29.0374    33025
    29.3394    16255
    29.6414     7186
    29.9434     7005
    30.2454     7188
    30.5474     6902
    30.8494     7099
    31.1514     7101
    31.4533     6786
    31.7553     6877
    32.0573     6741
    32.3593     6925
    32.6613     6883
    32.9633    11826
    33.2653     7158
    33.5673     6946
    33.8693    11119
    34.1713     7803
    34.4733     6846
    34.7753     6976
    35.0773     9163
    35.3793     6696
    35.6813     6503
    35.9833     6317
    36.2853     6732
    36.5873     8495
    36.8893     6572
    37.1913     6656
    37.4933     6680
    37.7953    12497
    38.0973     6474
    38.3993     6524
    38.7013     6637
    39.0033     6405
    39.3053     8547
    39.6073     6452
    39.9092     6478
    40.2112     7314
    40.5132     7923
    40.8152     6313
    41.1172     8234
    41.4192     8565
    41.7212     6439
    42.0232     6557
    42.3252     6356
    42.6272     6350
    42.9292     6297
    43.2312     6458
    43.5332     6515
    43.8352     6909
    44.1372     6714
    44.4392     6534
    44.7412    13125
    45.0432     6437
    45.3452     6317
    45.6472     6347
    45.9492     6695
    46.2512    17622
    46.5532     6682
    46.8552     6548
    47.1572     6298
    47.4592     6685
    47.7612    10673
    48.0632     7015
    48.3652    12562
    48.6671     6771
    48.9691     7131
    49.2711     8599
    49.5731     8712
    49.8751     7224
    50.1771    12419
    50.4791     6569
    50.7811     7809
    51.0831     7028
    51.3851     6511
    51.6871     7395
    51.9891     8909
    52.2911     6395
    52.5931     6499
    52.8951     6437
    53.1971     6169
    53.4991     6386
    53.8011     6229
    54.1031     6241
    54.4051     6235
    54.7071     6268
    55.0091     6321
    55.3111     6309
    55.6131     6878
    55.9151    10524
    56.2171     7224
    56.5191     9403
    56.8211    10130
    57.1231     6967
    57.4250     6378
    57.7270     6333
    58.0290    10765
    58.3310     6545
    58.6330     6210
    58.9350     8531
    59.2370     8517
    59.5390     7389
    59.8410     6482
    60.1430    10149
    60.4450     6405
    60.7470     8802
    61.0490     6659
    61.3510     7685
    61.6530    10285
    61.9550     6268
    62.2570     6035
    62.5590     6089
    62.8610     6163
    63.1630     6219
    63.4650     6858
    63.7670     7364
    64.0690     5946
    64.3710     6084
    64.6730     6572
    64.9750     6103
    65.2770     6000
    65.5790     6028
    65.8810     5927
    66.1829     5980
    66.4849     6013
    66.7869     6003
    67.0889     5842
    67.3909     6101
    67.6929     5925
    67.9949     5865
    68.2969     6056
    68.5989     6009
    68.9009     5946
    69.2029     7320
    69.5049     7349
    69.8069     7285
    70.1089     6672
    70.4109     6087
    70.7129     6147
    71.0149     6347
    71.3169     6097
    71.6189     5990
    71.9209     6503
    72.2229     7438
    72.5249     5915
    72.8269     6406
    73.1289     6064
    73.4309     6074
    73.7329     6534
    74.0349     6206
    74.3369     6589
    74.6388     6937
    74.9408     5924
    75.2428     5739
    75.5448     5793
    75.8468     6104
    76.1488     6009
    76.4508     5934
    76.7528     6024
    77.0548     8257
    77.3568     6455
    77.6588     6460
    77.9608     6074
    78.2628     5864
    78.5648     6008
    78.8668     6256
    79.1688     6147
    79.4708     6345
    79.7728     6425
    80.0748     6408
    80.3768     5946
    80.6788     6119
    80.9808     6405
    81.2828     6433
    81.5848     6674
    81.8868     6542
    82.1888     5949
    82.4908     5983
    82.7928     6091
    83.0947     6595
    83.3967     6212
    83.6987     5862
    84.0007     5675
    84.3027     5735
    84.6047     5831
    84.9067     6286
    85.2087     6000
    85.5107     5806
    85.8127     5998
    86.1147     5867
    86.4167     5767
    86.7187     6086
    87.0207     6312
    87.3227     6749
    87.6247     6230
    87.9267     5817
    88.2287     5904
    88.5307     6101
    88.8327     6276
    89.1347     6556
    89.4367     6131
    89.7387     6533
    90.0407     6059
    90.3427     5809
    90.6447     5740
    90.9467     5792
    91.2487     5746
    91.5507     6235
    91.8526     6028
    92.1546     6057
    92.4566     6668
    92.7586     6220
    93.0606     5727
    93.3626     5876
    93.6646     5824
    93.9666     6079
    94.2686     6076
    94.5706     5894
    94.8726     6056
    95.1746     6187
    95.4766     6215
    95.7786     5914
    96.0806     6476
    96.3826     5723
    96.6846     5753
    96.9866     5647
    97.2886     5709
    97.5906     6142
    97.8926     6102
    98.1946     5780
    98.4966     5997
    98.7986     6063
    99.1006     5789
    99.4026     5826
    99.7046     5635
    99.9934     5627