File: powder_X-ray_diffraction/variable-temperature_experiments/NaNbO2F2/raw_data/160°C.XY
! Initial file:   D:\ZAKARY_OUAIL\MA_THESE\Deuxième_année_de_thèse\DRX\Affinement_DRX\Fullprof\Thermodiff3-nuit_NaNbO2F2\160°C\NaNbO2F2-Lent_160°C.xrdml
! Initial format:  58
! WAVE (A):      1.54060     1.54060     1.00000
! REM : data have been multiplied by     1.0000
! X_data : 2 Theta (deg.)
! Y_data : Intensity (arb. units)
!     X         Y
!--------------------------------------------------------------------------------
    10.0116     7751
    10.3136     7757
    10.6156     7730
    10.9176     8435
    11.2196    44820
    11.5216     7904
    11.8236     8054
    12.1256     8283
    12.4276     8274
    12.7296     8332
    13.0316     8228
    13.3336     7916
    13.6356     7945
    13.9376     7976
    14.2395     8215
    14.5415     9806
    14.8435     7878
    15.1455     7670
    15.4475     7784
    15.7495     7936
    16.0515     8066
    16.3535     7698
    16.6555     7609
    16.9575     7680
    17.2595     7632
    17.5615     7385
    17.8635     7410
    18.1655     7200
    18.4675     7241
    18.7695     7302
    19.0715     7245
    19.3735     7567
    19.6755     8649
    19.9775    14454
    20.2795     7754
    20.5815     7674
    20.8835     7426
    21.1855     7473
    21.4875     7546
    21.7895     7591
    22.0915     7425
    22.3935     7470
    22.6954    17897
    22.9974     7353
    23.2994     7591
    23.6014     7743
    23.9034    16595
    24.2054    22012
    24.5074     7600
    24.8094     7397
    25.1114     7347
    25.4134     7267
    25.7154     7439
    26.0174     7341
    26.3194     7403
    26.6214     7307
    26.9234     7159
    27.2254     7586
    27.5274     7438
    27.8294     9190
    28.1314    24784
    28.4334     7788
    28.7354     7593
    29.0374    28453
    29.3394    16210
    29.6414     7178
    29.9434     7112
    30.2454     6920
    30.5474     6931
    30.8494     6906
    31.1514     6855
    31.4533     6836
    31.7553     6693
    32.0573     6984
    32.3593     6929
    32.6613     7144
    32.9633    17358
    33.2653     7095
    33.5673     7154
    33.8693     8456
    34.1713     9535
    34.4733     6897
    34.7753     6818
    35.0773     7697
    35.3793     6645
    35.6813     6529
    35.9833     6572
    36.2853     6644
    36.5873     8331
    36.8893     6567
    37.1913     6470
    37.4933     6883
    37.7953    11351
    38.0973     6631
    38.3993     6487
    38.7013     6358
    39.0033     6553
    39.3053     7720
    39.6073     6433
    39.9092     6241
    40.2112     7622
    40.5132     6769
    40.8152     6419
    41.1172     8249
    41.4192     7212
    41.7212     6404
    42.0232     6398
    42.3252     6547
    42.6272     6414
    42.9292     6318
    43.2312     6557
    43.5332     6744
    43.8352     6474
    44.1372     6697
    44.4392     6730
    44.7412    10205
    45.0432     6564
    45.3452     6367
    45.6472     6248
    45.9492     6923
    46.2512    11601
    46.5532     6650
    46.8552     6417
    47.1572     6677
    47.4592     7369
    47.7612     9308
    48.0632     7056
    48.3652    13070
    48.6671     6734
    48.9691     7070
    49.2711    13514
    49.5731     8627
    49.8751     7582
    50.1771     9493
    50.4791     6802
    50.7811     9189
    51.0831     6369
    51.3851     6471
    51.6871     8294
    51.9891     7887
    52.2911     6515
    52.5931     6374
    52.8951     6689
    53.1971     6174
    53.4991     6290
    53.8011     6353
    54.1031     6296
    54.4051     6153
    54.7071     6358
    55.0091     6322
    55.3111     6247
    55.6131     6901
    55.9151    11670
    56.2171     6901
    56.5191     7557
    56.8211     8774
    57.1231     6652
    57.4250     6384
    57.7270     6601
    58.0290    10634
    58.3310     6377
    58.6330     6713
    58.9350     9136
    59.2370     8884
    59.5390     8045
    59.8410     6551
    60.1430     8435
    60.4450     6204
    60.7470     7721
    61.0490     6522
    61.3510    12966
    61.6530     7747
    61.9550     6235
    62.2570     6008
    62.5590     6206
    62.8610     6187
    63.1630     6182
    63.4650     7399
    63.7670     7047
    64.0690     6105
    64.3710     6234
    64.6730     6671
    64.9750     6102
    65.2770     5971
    65.5790     6176
    65.8810     5905
    66.1829     5901
    66.4849     5974
    66.7869     5924
    67.0889     5995
    67.3909     6253
    67.6929     5983
    67.9949     6099
    68.2969     5985
    68.5989     6048
    68.9009     6136
    69.2029     7159
    69.5049     7582
    69.8069     7415
    70.1089     6600
    70.4109     6180
    70.7129     6457
    71.0149     6504
    71.3169     6149
    71.6189     6055
    71.9209     6431
    72.2229     7089
    72.5249     5997
    72.8269     6091
    73.1289     6134
    73.4309     7073
    73.7329     6533
    74.0349     6214
    74.3369     6655
    74.6388     6794
    74.9408     6096
    75.2428     6035
    75.5448     6045
    75.8468     6196
    76.1488     6058
    76.4508     6138
    76.7528     6358
    77.0548     6966
    77.3568     6310
    77.6588     6603
    77.9608     6014
    78.2628     5938
    78.5648     5965
    78.8668     6107
    79.1688     7080
    79.4708     6571
    79.7728     6848
    80.0748     6443
    80.3768     6071
    80.6788     6248
    80.9808     6822
    81.2828     6355
    81.5848     6636
    81.8868     6118
    82.1888     5930
    82.4908     6228
    82.7928     6474
    83.0947     6659
    83.3967     6038
    83.6987     5856
    84.0007     5837
    84.3027     5917
    84.6047     5905
    84.9067     6306
    85.2087     5898
    85.5107     5753
    85.8127     6135
    86.1147     6078
    86.4167     5803
    86.7187     6320
    87.0207     6780
    87.3227     6768
    87.6247     5952
    87.9267     6029
    88.2287     6453
    88.5307     6449
    88.8327     6129
    89.1347     6317
    89.4367     6535
    89.7387     6280
    90.0407     6069
    90.3427     5722
    90.6447     5790
    90.9467     5689
    91.2487     5871
    91.5507     6147
    91.8526     6233
    92.1546     6542
    92.4566     6240
    92.7586     5884
    93.0606     5836
    93.3626     5884
    93.6646     5890
    93.9666     6483
    94.2686     6178
    94.5706     5855
    94.8726     6351
    95.1746     6399
    95.4766     6127
    95.7786     5767
    96.0806     6067
    96.3826     5814
    96.6846     5893
    96.9866     5823
    97.2886     5954
    97.5906     6282
    97.8926     5703
    98.1946     5686
    98.4966     5780
    98.7986     6273
    99.1006     6001
    99.4026     5771
    99.7046     5685
    99.9934     5661