File: powder_X-ray_diffraction/variable-temperature_experiments/NaNbO2F2/raw_data/200°C.XY
! Initial file:   D:\ZAKARY_OUAIL\MA_THESE\Deuxième_année_de_thèse\DRX\Affinement_DRX\Fullprof\Thermodiff3-nuit_NaNbO2F2\200°C\NaNbO2F2-Lent_200°C.xrdml
! Initial format:  58
! WAVE (A):      1.54060     1.54060     1.00000
! REM : data have been multiplied by     1.0000
! X_data : 2 Theta (deg.)
! Y_data : Intensity (arb. units)
!     X         Y
!--------------------------------------------------------------------------------
    10.0116     7637
    10.3136     7976
    10.6156     7738
    10.9176     8200
    11.2196    51075
    11.5216     7871
    11.8236     8013
    12.1256     8161
    12.4276     8202
    12.7296     7948
    13.0316     7950
    13.3336     7816
    13.6356     7990
    13.9376     8077
    14.2395     7842
    14.5415     9693
    14.8435     7684
    15.1455     7769
    15.4475     7692
    15.7495     7748
    16.0515     7866
    16.3535     7729
    16.6555     7548
    16.9575     7842
    17.2595     7603
    17.5615     7252
    17.8635     7419
    18.1655     7526
    18.4675     7231
    18.7695     7097
    19.0715     7296
    19.3735     7718
    19.6755     9143
    19.9775    11218
    20.2795     7586
    20.5815     7465
    20.8835     7419
    21.1855     7320
    21.4875     7495
    21.7895     7644
    22.0915     7430
    22.3935     7561
    22.6954    13474
    22.9974     7516
    23.2994     7811
    23.6014     7577
    23.9034    15459
    24.2054    16839
    24.5074     7486
    24.8094     7459
    25.1114     7420
    25.4134     7244
    25.7154     7298
    26.0174     7430
    26.3194     7146
    26.6214     7259
    26.9234     7222
    27.2254     7452
    27.5274     7515
    27.8294    10018
    28.1314    15126
    28.4334     7670
    28.7354     7759
    29.0374    26234
    29.3394    14220
    29.6414     7353
    29.9434     7051
    30.2454     6955
    30.5474     6848
    30.8494     6945
    31.1514     6825
    31.4533     6958
    31.7553     7011
    32.0573     6805
    32.3593     6864
    32.6613     6874
    32.9633    14481
    33.2653     7137
    33.5673     7293
    33.8693     7319
    34.1713    13431
    34.4733     6916
    34.7753     6873
    35.0773     7247
    35.3793     6450
    35.6813     6430
    35.9833     6498
    36.2853     6824
    36.5873     8389
    36.8893     6305
    37.1913     6604
    37.4933     7405
    37.7953    11167
    38.0973     6822
    38.3993     6490
    38.7013     6373
    39.0033     6405
    39.3053     7908
    39.6073     6477
    39.9092     6360
    40.2112     7460
    40.5132     6827
    40.8152     6495
    41.1172    10813
    41.4192     6755
    41.7212     6457
    42.0232     6512
    42.3252     6315
    42.6272     6345
    42.9292     6593
    43.2312     6251
    43.5332     6958
    43.8352     6491
    44.1372     6613
    44.4392     6600
    44.7412     9710
    45.0432     6330
    45.3452     6435
    45.6472     6414
    45.9492     6750
    46.2512    13393
    46.5532     6633
    46.8552     6458
    47.1572     6426
    47.4592     9020
    47.7612     7968
    48.0632     7562
    48.3652    10752
    48.6671     6830
    48.9691     7042
    49.2711    14639
    49.5731     7377
    49.8751     8691
    50.1771     7753
    50.4791     7153
    50.7811     9748
    51.0831     6536
    51.3851     6575
    51.6871    10584
    51.9891     7241
    52.2911     6495
    52.5931     6434
    52.8951     6639
    53.1971     6434
    53.4991     6288
    53.8011     6302
    54.1031     6313
    54.4051     6135
    54.7071     6253
    55.0091     6273
    55.3111     6401
    55.6131     7391
    55.9151     8910
    56.2171     6590
    56.5191     8122
    56.8211     8013
    57.1231     6524
    57.4250     6402
    57.7270     7008
    58.0290     9554
    58.3310     6256
    58.6330     7577
    58.9350     9309
    59.2370     9915
    59.5390     6703
    59.8410     6468
    60.1430     8017
    60.4450     6385
    60.7470     7383
    61.0490     6448
    61.3510    12339
    61.6530     7225
    61.9550     6223
    62.2570     6209
    62.5590     6057
    62.8610     6014
    63.1630     6190
    63.4650     7008
    63.7670     6668
    64.0690     5946
    64.3710     6884
    64.6730     6377
    64.9750     6207
    65.2770     6074
    65.5790     6021
    65.8810     5948
    66.1829     5956
    66.4849     6157
    66.7869     6069
    67.0889     5952
    67.3909     6053
    67.6929     6191
    67.9949     6034
    68.2969     6122
    68.5989     5912
    68.9009     6509
    69.2029     7350
    69.5049     8594
    69.8069     6909
    70.1089     6387
    70.4109     6129
    70.7129     6666
    71.0149     6409
    71.3169     6087
    71.6189     6070
    71.9209     7143
    72.2229     7210
    72.5249     6124
    72.8269     6247
    73.1289     6064
    73.4309     7059
    73.7329     6261
    74.0349     6187
    74.3369     7453
    74.6388     6324
    74.9408     5945
    75.2428     5823
    75.5448     5951
    75.8468     6167
    76.1488     5887
    76.4508     6267
    76.7528     6639
    77.0548     6825
    77.3568     6188
    77.6588     6228
    77.9608     5973
    78.2628     5926
    78.5648     5982
    78.8668     6180
    79.1688     6614
    79.4708     6052
    79.7728     6822
    80.0748     6369
    80.3768     5909
    80.6788     6828
    80.9808     6458
    81.2828     6304
    81.5848     6337
    81.8868     6188
    82.1888     5938
    82.4908     6163
    82.7928     6174
    83.0947     6187
    83.3967     5816
    83.6987     5828
    84.0007     5763
    84.3027     6021
    84.6047     6088
    84.9067     6139
    85.2087     5772
    85.5107     5940
    85.8127     5928
    86.1147     5697
    86.4167     5896
    86.7187     6136
    87.0207     6491
    87.3227     6267
    87.6247     6069
    87.9267     6079
    88.2287     6172
    88.5307     5925
    88.8327     6281
    89.1347     6441
    89.4367     6576
    89.7387     6539
    90.0407     5934
    90.3427     5868
    90.6447     5947
    90.9467     5740
    91.2487     5967
    91.5507     6203
    91.8526     6160
    92.1546     6518
    92.4566     6206
    92.7586     5894
    93.0606     5813
    93.3626     5829
    93.6646     5940
    93.9666     6178
    94.2686     5932
    94.5706     6123
    94.8726     6396
    95.1746     6359
    95.4766     6674
    95.7786     6545
    96.0806     5922
    96.3826     5878
    96.6846     5496
    96.9866     5904
    97.2886     6075
    97.5906     6241
    97.8926     5798
    98.1946     5577
    98.4966     6068
    98.7986     6143
    99.1006     5794
    99.4026     5670
    99.7046     5663
    99.9934     5697