File: powder_X-ray_diffraction/variable-temperature_experiments/NaNbO2F2/raw_data/230°C.XY
! Initial file:   D:\ZAKARY_OUAIL\MA_THESE\Deuxième_année_de_thèse\DRX\Affinement_DRX\Fullprof\Thermodiff3-nuit_NaNbO2F2\230°C\NaNbO2F2-Lent_230°C.xrdml
! Initial format:  58
! WAVE (A):      1.54060     1.54060     1.00000
! REM : data have been multiplied by     1.0000
! X_data : 2 Theta (deg.)
! Y_data : Intensity (arb. units)
!     X         Y
!--------------------------------------------------------------------------------
    10.0116     7619
    10.3136     7540
    10.6156     7641
    10.9176     8251
    11.2196    54465
    11.5216     7855
    11.8236     7762
    12.1256     8275
    12.4276     8031
    12.7296     8011
    13.0316     8071
    13.3336     7827
    13.6356     7815
    13.9376     7930
    14.2395     7781
    14.5415     9533
    14.8435     7689
    15.1455     7621
    15.4475     7866
    15.7495     7625
    16.0515     7754
    16.3535     7695
    16.6555     7576
    16.9575     7421
    17.2595     7340
    17.5615     7310
    17.8635     7417
    18.1655     7311
    18.4675     7082
    18.7695     7165
    19.0715     7129
    19.3735     7591
    19.6755     9217
    19.9775    10356
    20.2795     7466
    20.5815     7498
    20.8835     7355
    21.1855     7362
    21.4875     7485
    21.7895     7504
    22.0915     7277
    22.3935     7618
    22.6954    11511
    22.9974     7512
    23.2994     7597
    23.6014     7604
    23.9034    14481
    24.2054    13602
    24.5074     7445
    24.8094     7447
    25.1114     7308
    25.4134     7245
    25.7154     7430
    26.0174     7311
    26.3194     7208
    26.6214     7300
    26.9234     7117
    27.2254     7574
    27.5274     7275
    27.8294    10486
    28.1314    12523
    28.4334     7863
    28.7354     7457
    29.0374    25928
    29.3394    13737
    29.6414     7237
    29.9434     7148
    30.2454     6864
    30.5474     7175
    30.8494     7080
    31.1514     6690
    31.4533     6919
    31.7553     6786
    32.0573     6953
    32.3593     7029
    32.6613     7015
    32.9633    14318
    33.2653     7101
    33.5673     7621
    33.8693     7252
    34.1713    13491
    34.4733     6588
    34.7753     7125
    35.0773     7380
    35.3793     6843
    35.6813     6504
    35.9833     6567
    36.2853     6662
    36.5873     8534
    36.8893     6602
    37.1913     6456
    37.4933     7401
    37.7953     9547
    38.0973     6691
    38.3993     6413
    38.7013     6323
    39.0033     6464
    39.3053     8097
    39.6073     6383
    39.9092     6437
    40.2112     7890
    40.5132     6586
    40.8152     6489
    41.1172    11921
    41.4192     6473
    41.7212     6432
    42.0232     6496
    42.3252     6493
    42.6272     6309
    42.9292     6304
    43.2312     6528
    43.5332     7293
    43.8352     6482
    44.1372     6492
    44.4392     6835
    44.7412     9184
    45.0432     6388
    45.3452     6538
    45.6472     6498
    45.9492     6817
    46.2512    12671
    46.5532     6485
    46.8552     6585
    47.1572     6488
    47.4592     8675
    47.7612     7525
    48.0632     8723
    48.3652     8372
    48.6671     7045
    48.9691     7154
    49.2711    12720
    49.5731     6869
    49.8751    10320
    50.1771     7301
    50.4791     7637
    50.7811     8191
    51.0831     6568
    51.3851     6601
    51.6871    13483
    51.9891     7023
    52.2911     6306
    52.5931     6355
    52.8951     6555
    53.1971     6302
    53.4991     6362
    53.8011     6435
    54.1031     6228
    54.4051     6123
    54.7071     6137
    55.0091     6256
    55.3111     6356
    55.6131     7732
    55.9151     9377
    56.2171     6865
    56.5191     8211
    56.8211     8609
    57.1231     6579
    57.4250     6577
    57.7270     7494
    58.0290     8397
    58.3310     6558
    58.6330     7738
    58.9350    10469
    59.2370    10086
    59.5390     6387
    59.8410     6479
    60.1430     8019
    60.4450     6475
    60.7470     7611
    61.0490     6538
    61.3510    10149
    61.6530     7423
    61.9550     6221
    62.2570     6134
    62.5590     5963
    62.8610     6054
    63.1630     6438
    63.4650     7531
    63.7670     6368
    64.0690     6123
    64.3710     7211
    64.6730     6265
    64.9750     6206
    65.2770     6047
    65.5790     6131
    65.8810     5921
    66.1829     6060
    66.4849     6210
    66.7869     6029
    67.0889     5845
    67.3909     5920
    67.6929     5995
    67.9949     5971
    68.2969     5921
    68.5989     6106
    68.9009     6895
    69.2029     7256
    69.5049     8049
    69.8069     7030
    70.1089     6559
    70.4109     6128
    70.7129     6807
    71.0149     6263
    71.3169     5991
    71.6189     6335
    71.9209     8244
    72.2229     6801
    72.5249     6248
    72.8269     6318
    73.1289     6100
    73.4309     6445
    73.7329     6013
    74.0349     6264
    74.3369     6941
    74.6388     6249
    74.9408     6110
    75.2428     5920
    75.5448     5889
    75.8468     6063
    76.1488     5884
    76.4508     6302
    76.7528     7186
    77.0548     6298
    77.3568     5885
    77.6588     5956
    77.9608     5892
    78.2628     5821
    78.5648     5960
    78.8668     6308
    79.1688     6454
    79.4708     6103
    79.7728     6392
    80.0748     6247
    80.3768     6015
    80.6788     6706
    80.9808     6152
    81.2828     6167
    81.5848     6330
    81.8868     6045
    82.1888     6182
    82.4908     6397
    82.7928     5866
    83.0947     6114
    83.3967     5864
    83.6987     5842
    84.0007     5909
    84.3027     6072
    84.6047     6361
    84.9067     5904
    85.2087     5743
    85.5107     5821
    85.8127     5839
    86.1147     5930
    86.4167     6024
    86.7187     6317
    87.0207     6607
    87.3227     6102
    87.6247     5809
    87.9267     6247
    88.2287     6151
    88.5307     5952
    88.8327     6275
    89.1347     6319
    89.4367     6834
    89.7387     6496
    90.0407     6069
    90.3427     5820
    90.6447     5691
    90.9467     5884
    91.2487     6125
    91.5507     6186
    91.8526     6150
    92.1546     6522
    92.4566     6202
    92.7586     5909
    93.0606     5806
    93.3626     5778
    93.6646     6092
    93.9666     6039
    94.2686     5664
    94.5706     6326
    94.8726     6147
    95.1746     5842
    95.4766     6224
    95.7786     6214
    96.0806     5978
    96.3826     5717
    96.6846     5854
    96.9866     6012
    97.2886     5960
    97.5906     6120
    97.8926     5815
    98.1946     5810
    98.4966     5901
    98.7986     5806
    99.1006     5787
    99.4026     5754
    99.7046     5682
    99.9934     5757