File: powder_X-ray_diffraction/variable-temperature_experiments/NaNbO2F2/raw_data/240°C.XY
! Initial file:   D:\ZAKARY_OUAIL\MA_THESE\Deuxième_année_de_thèse\DRX\Affinement_DRX\Fullprof\Thermodiff3-nuit_NaNbO2F2\240°C\NaNbO2F2-Lent_240°C.xrdml
! Initial format:  58
! WAVE (A):      1.54060     1.54060     1.00000
! REM : data have been multiplied by     1.0000
! X_data : 2 Theta (deg.)
! Y_data : Intensity (arb. units)
!     X         Y
!--------------------------------------------------------------------------------
    10.0116     7515
    10.3136     7622
    10.6156     7558
    10.9176     7996
    11.2196    55251
    11.5216     7634
    11.8236     8195
    12.1256     7975
    12.4276     8115
    12.7296     7874
    13.0316     7906
    13.3336     7867
    13.6356     7889
    13.9376     7856
    14.2395     7822
    14.5415     9414
    14.8435     7532
    15.1455     7551
    15.4475     7592
    15.7495     7820
    16.0515     7675
    16.3535     7707
    16.6555     7616
    16.9575     7481
    17.2595     7498
    17.5615     7368
    17.8635     7560
    18.1655     7187
    18.4675     7212
    18.7695     7038
    19.0715     7098
    19.3735     7565
    19.6755     9241
    19.9775     9967
    20.2795     7466
    20.5815     7520
    20.8835     7298
    21.1855     7324
    21.4875     7526
    21.7895     7506
    22.0915     7463
    22.3935     7512
    22.6954    10982
    22.9974     7377
    23.2994     7587
    23.6014     7688
    23.9034    14381
    24.2054    12592
    24.5074     7427
    24.8094     7448
    25.1114     7268
    25.4134     7328
    25.7154     7167
    26.0174     7167
    26.3194     7206
    26.6214     7181
    26.9234     7171
    27.2254     7505
    27.5274     7404
    27.8294    10674
    28.1314    11618
    28.4334     7644
    28.7354     7684
    29.0374    26038
    29.3394    13311
    29.6414     7495
    29.9434     6845
    30.2454     6977
    30.5474     6955
    30.8494     6942
    31.1514     7039
    31.4533     6768
    31.7553     6828
    32.0573     6890
    32.3593     7006
    32.6613     6844
    32.9633    14534
    33.2653     6997
    33.5673     7827
    33.8693     7057
    34.1713    13429
    34.4733     6723
    34.7753     7359
    35.0773     7455
    35.3793     6660
    35.6813     6457
    35.9833     6592
    36.2853     6596
    36.5873     8336
    36.8893     6419
    37.1913     6537
    37.4933     7279
    37.7953     8897
    38.0973     6488
    38.3993     6348
    38.7013     6586
    39.0033     6670
    39.3053     7990
    39.6073     6436
    39.9092     6283
    40.2112     8184
    40.5132     6641
    40.8152     6654
    41.1172    11728
    41.4192     6342
    41.7212     6342
    42.0232     6316
    42.3252     6316
    42.6272     6340
    42.9292     6317
    43.2312     6358
    43.5332     7427
    43.8352     6532
    44.1372     6487
    44.4392     6685
    44.7412     8448
    45.0432     6324
    45.3452     6272
    45.6472     6378
    45.9492     6758
    46.2512    12389
    46.5532     6439
    46.8552     6540
    47.1572     6408
    47.4592     8531
    47.7612     7298
    48.0632     9520
    48.3652     7806
    48.6671     6816
    48.9691     7117
    49.2711    11706
    49.5731     6965
    49.8751    11242
    50.1771     7183
    50.4791     7493
    50.7811     8189
    51.0831     6414
    51.3851     6527
    51.6871    14193
    51.9891     7042
    52.2911     6535
    52.5931     6559
    52.8951     6556
    53.1971     6147
    53.4991     6308
    53.8011     6341
    54.1031     6345
    54.4051     6313
    54.7071     6257
    55.0091     6405
    55.3111     6462
    55.6131     8112
    55.9151     9605
    56.2171     6881
    56.5191     7805
    56.8211     8327
    57.1231     6480
    57.4250     6306
    57.7270     7824
    58.0290     8051
    58.3310     6352
    58.6330     7816
    58.9350    10716
    59.2370     9795
    59.5390     6342
    59.8410     6558
    60.1430     7898
    60.4450     6545
    60.7470     7899
    61.0490     6615
    61.3510     9645
    61.6530     7441
    61.9550     6256
    62.2570     6107
    62.5590     6117
    62.8610     6102
    63.1630     6338
    63.4650     7701
    63.7670     6369
    64.0690     6087
    64.3710     7161
    64.6730     5955
    64.9750     6086
    65.2770     5974
    65.5790     5919
    65.8810     5944
    66.1829     6081
    66.4849     6127
    66.7869     5953
    67.0889     5953
    67.3909     6097
    67.6929     6078
    67.9949     5823
    68.2969     6012
    68.5989     6080
    68.9009     7124
    69.2029     7627
    69.5049     7728
    69.8069     6948
    70.1089     6507
    70.4109     6169
    70.7129     6816
    71.0149     6185
    71.3169     5965
    71.6189     6407
    71.9209     8442
    72.2229     6541
    72.5249     6240
    72.8269     6405
    73.1289     6180
    73.4309     6410
    73.7329     5983
    74.0349     6500
    74.3369     6883
    74.6388     6255
    74.9408     5875
    75.2428     6075
    75.5448     5821
    75.8468     6241
    76.1488     5855
    76.4508     6318
    76.7528     7218
    77.0548     6441
    77.3568     6168
    77.6588     6139
    77.9608     5805
    78.2628     5955
    78.5648     6034
    78.8668     6315
    79.1688     6765
    79.4708     6286
    79.7728     6525
    80.0748     6277
    80.3768     5942
    80.6788     6754
    80.9808     6248
    81.2828     6321
    81.5848     6269
    81.8868     5979
    82.1888     6256
    82.4908     6404
    82.7928     6046
    83.0947     6175
    83.3967     5924
    83.6987     6062
    84.0007     5871
    84.3027     5909
    84.6047     6200
    84.9067     6091
    85.2087     5836
    85.5107     6073
    85.8127     5946
    86.1147     5881
    86.4167     6083
    86.7187     6359
    87.0207     6673
    87.3227     6226
    87.6247     6008
    87.9267     6297
    88.2287     6061
    88.5307     6022
    88.8327     6356
    89.1347     6482
    89.4367     6852
    89.7387     6751
    90.0407     6048
    90.3427     5920
    90.6447     5963
    90.9467     5761
    91.2487     6104
    91.5507     6124
    91.8526     6573
    92.1546     6588
    92.4566     5951
    92.7586     5938
    93.0606     5831
    93.3626     5871
    93.6646     6092
    93.9666     6004
    94.2686     5869
    94.5706     6182
    94.8726     6184
    95.1746     6149
    95.4766     6061
    95.7786     6393
    96.0806     5972
    96.3826     5840
    96.6846     5847
    96.9866     6021
    97.2886     6032
    97.5906     6249
    97.8926     5742
    98.1946     5869
    98.4966     6144
    98.7986     5861
    99.1006     5866
    99.4026     5623
    99.7046     5766
    99.9934     5784