File: powder_X-ray_diffraction/variable-temperature_experiments/NaNbO2F2/raw_data/250°C.XY
! Initial file:   D:\ZAKARY_OUAIL\MA_THESE\Deuxième_année_de_thèse\DRX\Affinement_DRX\Fullprof\Thermodiff3-nuit_NaNbO2F2\250°C\NaNbO2F2-Lent_250°C.xrdml
! Initial format:  58
! WAVE (A):      1.54060     1.54060     1.00000
! REM : data have been multiplied by     1.0000
! X_data : 2 Theta (deg.)
! Y_data : Intensity (arb. units)
!     X         Y
!--------------------------------------------------------------------------------
    10.0116     7409
    10.3136     7706
    10.6156     7515
    10.9176     8215
    11.2196    56892
    11.5216     7623
    11.8236     7954
    12.1256     8011
    12.4276     8192
    12.7296     7772
    13.0316     7865
    13.3336     7695
    13.6356     7913
    13.9376     7878
    14.2395     7775
    14.5415     9592
    14.8435     7728
    15.1455     7635
    15.4475     7706
    15.7495     7798
    16.0515     7644
    16.3535     7586
    16.6555     7484
    16.9575     7472
    17.2595     7529
    17.5615     7396
    17.8635     7491
    18.1655     7265
    18.4675     7330
    18.7695     7079
    19.0715     7210
    19.3735     7604
    19.6755     9727
    19.9775     9539
    20.2795     7602
    20.5815     7570
    20.8835     7320
    21.1855     7334
    21.4875     7376
    21.7895     7465
    22.0915     7482
    22.3935     7693
    22.6954    10309
    22.9974     7293
    23.2994     7406
    23.6014     7749
    23.9034    14086
    24.2054    11901
    24.5074     7361
    24.8094     7420
    25.1114     7365
    25.4134     7221
    25.7154     7341
    26.0174     7315
    26.3194     7352
    26.6214     7136
    26.9234     7193
    27.2254     7522
    27.5274     7595
    27.8294    10920
    28.1314    11184
    28.4334     7774
    28.7354     7560
    29.0374    25907
    29.3394    12718
    29.6414     7162
    29.9434     7035
    30.2454     7013
    30.5474     6957
    30.8494     7156
    31.1514     6717
    31.4533     6874
    31.7553     6842
    32.0573     6834
    32.3593     6912
    32.6613     7107
    32.9633    14827
    33.2653     7217
    33.5673     8112
    33.8693     7004
    34.1713    13367
    34.4733     6694
    34.7753     7737
    35.0773     7357
    35.3793     6553
    35.6813     6561
    35.9833     6484
    36.2853     6596
    36.5873     8470
    36.8893     6497
    37.1913     6465
    37.4933     7199
    37.7953     8200
    38.0973     6525
    38.3993     6674
    38.7013     6480
    39.0033     6604
    39.3053     7596
    39.6073     6456
    39.9092     6527
    40.2112     8558
    40.5132     6449
    40.8152     6484
    41.1172    11109
    41.4192     6534
    41.7212     6415
    42.0232     6495
    42.3252     6611
    42.6272     6284
    42.9292     6345
    43.2312     6328
    43.5332     7325
    43.8352     6532
    44.1372     6483
    44.4392     6865
    44.7412     7613
    45.0432     6311
    45.3452     6391
    45.6472     6500
    45.9492     6819
    46.2512    11571
    46.5532     6568
    46.8552     6389
    47.1572     6515
    47.4592     8027
    47.7612     7169
    48.0632    10523
    48.3652     7477
    48.6671     6996
    48.9691     7229
    49.2711    10739
    49.5731     7033
    49.8751    12781
    50.1771     7251
    50.4791     7431
    50.7811     8127
    51.0831     6483
    51.3851     6550
    51.6871    14281
    51.9891     6731
    52.2911     6522
    52.5931     6455
    52.8951     6644
    53.1971     6339
    53.4991     6181
    53.8011     6460
    54.1031     6224
    54.4051     6351
    54.7071     6329
    55.0091     6265
    55.3111     6480
    55.6131     8259
    55.9151     9013
    56.2171     7001
    56.5191     7643
    56.8211     7903
    57.1231     6408
    57.4250     6414
    57.7270     8301
    58.0290     7967
    58.3310     6187
    58.6330     7463
    58.9350    10161
    59.2370     8591
    59.5390     6195
    59.8410     6604
    60.1430     8387
    60.4450     6583
    60.7470     7531
    61.0490     6833
    61.3510     9382
    61.6530     7591
    61.9550     6392
    62.2570     6148
    62.5590     6102
    62.8610     6233
    63.1630     6535
    63.4650     7682
    63.7670     6328
    64.0690     6051
    64.3710     6527
    64.6730     6168
    64.9750     6087
    65.2770     6093
    65.5790     6125
    65.8810     5910
    66.1829     6129
    66.4849     6234
    66.7869     5940
    67.0889     5773
    67.3909     6128
    67.6929     6167
    67.9949     6114
    68.2969     6035
    68.5989     6114
    68.9009     7102
    69.2029     7605
    69.5049     7804
    69.8069     6956
    70.1089     6506
    70.4109     6244
    70.7129     6725
    71.0149     6101
    71.3169     5870
    71.6189     6344
    71.9209     8489
    72.2229     6370
    72.5249     6180
    72.8269     6179
    73.1289     6429
    73.4309     6542
    73.7329     6080
    74.0349     6756
    74.3369     7000
    74.6388     6038
    74.9408     5939
    75.2428     5953
    75.5448     5754
    75.8468     6091
    76.1488     5768
    76.4508     6220
    76.7528     6951
    77.0548     6306
    77.3568     6061
    77.6588     6189
    77.9608     5868
    78.2628     5950
    78.5648     6089
    78.8668     6429
    79.1688     6660
    79.4708     6190
    79.7728     6448
    80.0748     6254
    80.3768     6141
    80.6788     6769
    80.9808     6309
    81.2828     6308
    81.5848     6380
    81.8868     5992
    82.1888     6361
    82.4908     6329
    82.7928     6060
    83.0947     6023
    83.3967     6000
    83.6987     5796
    84.0007     5876
    84.3027     5914
    84.6047     6302
    84.9067     5902
    85.2087     5952
    85.5107     5767
    85.8127     6036
    86.1147     5871
    86.4167     6081
    86.7187     6574
    87.0207     6776
    87.3227     6028
    87.6247     5926
    87.9267     6325
    88.2287     6235
    88.5307     5917
    88.8327     6391
    89.1347     6355
    89.4367     6724
    89.7387     6669
    90.0407     6162
    90.3427     5657
    90.6447     5819
    90.9467     5803
    91.2487     5966
    91.5507     6282
    91.8526     6499
    92.1546     6734
    92.4566     6227
    92.7586     5817
    93.0606     5814
    93.3626     5837
    93.6646     6423
    93.9666     6121
    94.2686     5843
    94.5706     6406
    94.8726     6308
    95.1746     6033
    95.4766     5933
    95.7786     6061
    96.0806     5842
    96.3826     5597
    96.6846     5866
    96.9866     6017
    97.2886     6154
    97.5906     6077
    97.8926     5869
    98.1946     6039
    98.4966     6000
    98.7986     5937
    99.1006     5815
    99.4026     5853
    99.7046     5680
    99.9934     5770