File: powder_X-ray_diffraction/variable-temperature_experiments/NaNbO2F2/raw_data/25°C.XY
! Initial file:   D:\ZAKARY_OUAIL\MA_THESE\Deuxième_année_de_thèse\DRX\Affinement_DRX\Fullprof\Thermodiff3-nuit_NaNbO2F2\25°C\NaNbO2F2-Lent_25°C.xrdml
! Initial format:  58
! WAVE (A):      1.54060     1.54060     1.00000
! REM : data have been multiplied by     1.0000
! X_data : 2 Theta (deg.)
! Y_data : Intensity (arb. units)
!     X         Y
!--------------------------------------------------------------------------------
    10.0116     8374
    10.3136     8352
    10.6156     8366
    10.9176     8629
    11.2196    29291
    11.5216     8493
    11.8236     8731
    12.1256     8571
    12.4276     8647
    12.7296     8624
    13.0316     8352
    13.3336     8302
    13.6356     8573
    13.9376     8235
    14.2395     8345
    14.5415     9813
    14.8435     8270
    15.1455     8083
    15.4475     7896
    15.7495     7980
    16.0515     7851
    16.3535     8046
    16.6555     7894
    16.9575     7611
    17.2595     7828
    17.5615     7805
    17.8635     7393
    18.1655     7719
    18.4675     7553
    18.7695     7508
    19.0715     7330
    19.3735     7841
    19.6755     8523
    19.9775    56765
    20.2795     8038
    20.5815     7741
    20.8835     7826
    21.1855     7499
    21.4875     7827
    21.7895     7530
    22.0915     7448
    22.3935     7679
    22.6954    32013
    22.9974     7562
    23.2994     7802
    23.6014     7797
    23.9034    16444
    24.2054    31069
    24.5074     7762
    24.8094     7460
    25.1114     7490
    25.4134     7451
    25.7154     7491
    26.0174     7447
    26.3194     7242
    26.6214     7274
    26.9234     7071
    27.2254     7454
    27.5274     7440
    27.8294     8463
    28.1314    73780
    28.4334     8208
    28.7354     7881
    29.0374    40525
    29.3394    13488
    29.6414     7359
    29.9434     7098
    30.2454     6977
    30.5474     7074
    30.8494     6980
    31.1514     6814
    31.4533     6876
    31.7553     6829
    32.0573     6929
    32.3593     6836
    32.6613     6894
    32.9633     7940
    33.2653     7626
    33.5673     6892
    33.8693    14995
    34.1713     7226
    34.4733     7203
    34.7753     6706
    35.0773    11602
    35.3793     6937
    35.6813     6590
    35.9833     6699
    36.2853     6564
    36.5873     8419
    36.8893     6582
    37.1913     6245
    37.4933     6604
    37.7953     7748
    38.0973     7198
    38.3993     6557
    38.7013     6550
    39.0033     6630
    39.3053     8414
    39.6073     6462
    39.9092     6550
    40.2112     6895
    40.5132     8997
    40.8152     6462
    41.1172     6687
    41.4192    12108
    41.7212     6437
    42.0232     6645
    42.3252     6385
    42.6272     6331
    42.9292     6362
    43.2312     6340
    43.5332     6393
    43.8352     6969
    44.1372     6402
    44.4392     6551
    44.7412     6899
    45.0432     8264
    45.3452     6345
    45.6472     6206
    45.9492     6421
    46.2512     8486
    46.5532     7295
    46.8552     6377
    47.1572     6273
    47.4592     6416
    47.7612    10602
    48.0632     6634
    48.3652    10974
    48.6671     7668
    48.9691     7254
    49.2711     7057
    49.5731    14011
    49.8751     6964
    50.1771    11467
    50.4791     6530
    50.7811     8270
    51.0831     8428
    51.3851     6414
    51.6871     6727
    51.9891     9294
    52.2911     7019
    52.5931     6365
    52.8951     6512
    53.1971     6415
    53.4991     6408
    53.8011     6263
    54.1031     6303
    54.4051     6126
    54.7071     6186
    55.0091     6230
    55.3111     6281
    55.6131     7108
    55.9151     6691
    56.2171     8886
    56.5191     6538
    56.8211     8179
    57.1231     8276
    57.4250     6627
    57.7270     6400
    58.0290     8095
    58.3310     8202
    58.6330     6250
    58.9350     7226
    59.2370     9085
    59.5390     8790
    59.8410     7414
    60.1430    10585
    60.4450     6615
    60.7470     6197
    61.0490     7581
    61.3510     6417
    61.6530    11478
    61.9550     6982
    62.2570     6027
    62.5590     6009
    62.8610     5861
    63.1630     5956
    63.4650     6116
    63.7670     7480
    64.0690     6149
    64.3710     5994
    64.6730     6163
    64.9750     6646
    65.2770     6026
    65.5790     6046
    65.8810     6014
    66.1829     5937
    66.4849     6132
    66.7869     6172
    67.0889     5777
    67.3909     5963
    67.6929     6007
    67.9949     5946
    68.2969     5939
    68.5989     6139
    68.9009     5901
    69.2029     6082
    69.5049     7700
    69.8069     6603
    70.1089     7319
    70.4109     5905
    70.7129     6166
    71.0149     6648
    71.3169     6281
    71.6189     5991
    71.9209     6039
    72.2229     6837
    72.5249     7137
    72.8269     5940
    73.1289     6268
    73.4309     6053
    73.7329     6331
    74.0349     6575
    74.3369     6290
    74.6388     6932
    74.9408     6734
    75.2428     6032
    75.5448     5948
    75.8468     5795
    76.1488     5933
    76.4508     5898
    76.7528     6070
    77.0548     6216
    77.3568     7332
    77.6588     6535
    77.9608     6270
    78.2628     5822
    78.5648     5913
    78.8668     5854
    79.1688     6117
    79.4708     6238
    79.7728     6419
    80.0748     6922
    80.3768     6066
    80.6788     6205
    80.9808     5970
    81.2828     6422
    81.5848     6475
    81.8868     6958
    82.1888     6306
    82.4908     5900
    82.7928     5982
    83.0947     6211
    83.3967     6223
    83.6987     5863
    84.0007     5905
    84.3027     5738
    84.6047     5865
    84.9067     5898
    85.2087     6416
    85.5107     6283
    85.8127     5934
    86.1147     5680
    86.4167     5778
    86.7187     5687
    87.0207     6657
    87.3227     6935
    87.6247     6759
    87.9267     6243
    88.2287     6027
    88.5307     6165
    88.8327     6204
    89.1347     6217
    89.4367     6172
    89.7387     6065
    90.0407     6799
    90.3427     6019
    90.6447     5756
    90.9467     5722
    91.2487     5738
    91.5507     5712
    91.8526     5982
    92.1546     6009
    92.4566     6313
    92.7586     6486
    93.0606     6103
    93.3626     5823
    93.6646     5791
    93.9666     5936
    94.2686     5931
    94.5706     6287
    94.8726     6054
    95.1746     5841
    95.4766     6219
    95.7786     6559
    96.0806     6118
    96.3826     6258
    96.6846     5920
    96.9866     5566
    97.2886     5668
    97.5906     5996
    97.8926     6045
    98.1946     6169
    98.4966     5644
    98.7986     5839
    99.1006     5792
    99.4026     5932
    99.7046     5774
    99.9934     5708