File: powder_X-ray_diffraction/variable-temperature_experiments/NaNbO2F2/raw_data/270°C.XY
! Initial file:   D:\ZAKARY_OUAIL\MA_THESE\Deuxième_année_de_thèse\DRX\Affinement_DRX\Fullprof\Thermodiff3-nuit_NaNbO2F2\270°C\NaNbO2F2-Lent_270°C.xrdml
! Initial format:  58
! WAVE (A):      1.54060     1.54060     1.00000
! REM : data have been multiplied by     1.0000
! X_data : 2 Theta (deg.)
! Y_data : Intensity (arb. units)
!     X         Y
!--------------------------------------------------------------------------------
    10.0116     7473
    10.3136     7470
    10.6156     7498
    10.9176     7965
    11.2196    61934
    11.5216     7676
    11.8236     7991
    12.1256     7907
    12.4276     7951
    12.7296     8071
    13.0316     8087
    13.3336     7904
    13.6356     7901
    13.9376     7734
    14.2395     7730
    14.5415     9489
    14.8435     7752
    15.1455     7638
    15.4475     7552
    15.7495     7499
    16.0515     7644
    16.3535     7572
    16.6555     7369
    16.9575     7508
    17.2595     7442
    17.5615     7198
    17.8635     7557
    18.1655     7267
    18.4675     7134
    18.7695     7193
    19.0715     7241
    19.3735     7515
    19.6755    10076
    19.9775     9417
    20.2795     7383
    20.5815     7398
    20.8835     7433
    21.1855     7220
    21.4875     7534
    21.7895     7496
    22.0915     7391
    22.3935     7686
    22.6954     8899
    22.9974     7395
    23.2994     7554
    23.6014     7805
    23.9034    14007
    24.2054    10468
    24.5074     7471
    24.8094     7362
    25.1114     7207
    25.4134     7127
    25.7154     7197
    26.0174     7533
    26.3194     7228
    26.6214     7132
    26.9234     7262
    27.2254     7486
    27.5274     7302
    27.8294    12109
    28.1314    10604
    28.4334     7963
    28.7354     7656
    29.0374    25142
    29.3394    11426
    29.6414     6922
    29.9434     7034
    30.2454     6888
    30.5474     7020
    30.8494     6770
    31.1514     6937
    31.4533     6963
    31.7553     6779
    32.0573     6881
    32.3593     6951
    32.6613     7047
    32.9633    14011
    33.2653     7195
    33.5673     9691
    33.8693     6962
    34.1713    11094
    34.4733     6652
    34.7753     8866
    35.0773     7155
    35.3793     6553
    35.6813     6428
    35.9833     6608
    36.2853     6507
    36.5873     8381
    36.8893     6684
    37.1913     6584
    37.4933     7130
    37.7953     7975
    38.0973     6611
    38.3993     6683
    38.7013     6478
    39.0033     6535
    39.3053     7458
    39.6073     6506
    39.9092     6457
    40.2112     9841
    40.5132     6425
    40.8152     6643
    41.1172    11204
    41.4192     6631
    41.7212     6334
    42.0232     6520
    42.3252     6373
    42.6272     6322
    42.9292     6232
    43.2312     6596
    43.5332     7657
    43.8352     6491
    44.1372     6586
    44.4392     7317
    44.7412     6986
    45.0432     6343
    45.3452     6424
    45.6472     6327
    45.9492     7394
    46.2512     8652
    46.5532     6487
    46.8552     6497
    47.1572     6578
    47.4592     8329
    47.7612     7209
    48.0632    15464
    48.3652     6907
    48.6671     7090
    48.9691     7216
    49.2711    12031
    49.5731     6725
    49.8751    16640
    50.1771     6932
    50.4791     7144
    50.7811     7959
    51.0831     6486
    51.3851     6638
    51.6871    14936
    51.9891     6613
    52.2911     6296
    52.5931     6504
    52.8951     6597
    53.1971     6301
    53.4991     6315
    53.8011     6314
    54.1031     6261
    54.4051     6324
    54.7071     6203
    55.0091     6222
    55.3111     6496
    55.6131     8992
    55.9151     7347
    56.2171     7741
    56.5191     8187
    56.8211     7446
    57.1231     6306
    57.4250     6285
    57.7270     9391
    58.0290     7968
    58.3310     6244
    58.6330     7294
    58.9350     9129
    59.2370     7480
    59.5390     6339
    59.8410     6489
    60.1430     8998
    60.4450     7011
    60.7470     6957
    61.0490     7042
    61.3510     9943
    61.6530     7351
    61.9550     6173
    62.2570     6113
    62.5590     6237
    62.8610     6270
    63.1630     7375
    63.4650     7922
    63.7670     6351
    64.0690     6196
    64.3710     6488
    64.6730     6180
    64.9750     6052
    65.2770     5970
    65.5790     5988
    65.8810     5878
    66.1829     6126
    66.4849     6297
    66.7869     5972
    67.0889     5962
    67.3909     5989
    67.6929     5989
    67.9949     6046
    68.2969     6319
    68.5989     6183
    68.9009     7269
    69.2029     8170
    69.5049     7673
    69.8069     7107
    70.1089     6499
    70.4109     6237
    70.7129     6469
    71.0149     6170
    71.3169     5973
    71.6189     6486
    71.9209     7683
    72.2229     6194
    72.5249     6707
    72.8269     6225
    73.1289     6954
    73.4309     6601
    73.7329     6083
    74.0349     6599
    74.3369     6751
    74.6388     6021
    74.9408     5666
    75.2428     6028
    75.5448     5958
    75.8468     5981
    76.1488     6065
    76.4508     6477
    76.7528     6481
    77.0548     6231
    77.3568     6015
    77.6588     6142
    77.9608     5755
    78.2628     5710
    78.5648     6192
    78.8668     7018
    79.1688     6503
    79.4708     6420
    79.7728     6496
    80.0748     6363
    80.3768     5917
    80.6788     6733
    80.9808     6049
    81.2828     6868
    81.5848     6229
    81.8868     5928
    82.1888     6142
    82.4908     6166
    82.7928     6122
    83.0947     6119
    83.3967     5813
    83.6987     5795
    84.0007     5837
    84.3027     6208
    84.6047     6427
    84.9067     5854
    85.2087     6010
    85.5107     5789
    85.8127     5938
    86.1147     6066
    86.4167     6304
    86.7187     7308
    87.0207     6743
    87.3227     6011
    87.6247     6055
    87.9267     6466
    88.2287     6018
    88.5307     6304
    88.8327     6099
    89.1347     6416
    89.4367     6636
    89.7387     6993
    90.0407     6098
    90.3427     5848
    90.6447     5856
    90.9467     6016
    91.2487     5813
    91.5507     6198
    91.8526     6583
    92.1546     6669
    92.4566     6061
    92.7586     5973
    93.0606     5913
    93.3626     5888
    93.6646     6152
    93.9666     5881
    94.2686     6081
    94.5706     6130
    94.8726     6067
    95.1746     6157
    95.4766     6079
    95.7786     5999
    96.0806     5751
    96.3826     5889
    96.6846     5924
    96.9866     5869
    97.2886     6087
    97.5906     6064
    97.8926     5925
    98.1946     5938
    98.4966     5982
    98.7986     5867
    99.1006     5799
    99.4026     5819
    99.7046     5638
    99.9934     5939