File: powder_X-ray_diffraction/variable-temperature_experiments/NaNbO2F2/raw_data/280°C.XY
! Initial file:   D:\ZAKARY_OUAIL\MA_THESE\Deuxième_année_de_thèse\DRX\Affinement_DRX\Fullprof\Thermodiff3-nuit_NaNbO2F2\280°C\NaNbO2F2-Lent_280°C.xrdml
! Initial format:  58
! WAVE (A):      1.54060     1.54060     1.00000
! REM : data have been multiplied by     1.0000
! X_data : 2 Theta (deg.)
! Y_data : Intensity (arb. units)
!     X         Y
!--------------------------------------------------------------------------------
    10.0116     7542
    10.3136     7605
    10.6156     7557
    10.9176     8203
    11.2196    64762
    11.5216     7689
    11.8236     8008
    12.1256     7983
    12.4276     8004
    12.7296     7900
    13.0316     7853
    13.3336     7723
    13.6356     7838
    13.9376     7799
    14.2395     7725
    14.5415     9570
    14.8435     7753
    15.1455     7671
    15.4475     7741
    15.7495     7702
    16.0515     7656
    16.3535     7403
    16.6555     7578
    16.9575     7337
    17.2595     7428
    17.5615     7408
    17.8635     7640
    18.1655     7394
    18.4675     7304
    18.7695     6992
    19.0715     7271
    19.3735     7624
    19.6755    10286
    19.9775     9423
    20.2795     7462
    20.5815     7451
    20.8835     7433
    21.1855     7377
    21.4875     7319
    21.7895     7451
    22.0915     7382
    22.3935     7707
    22.6954     8606
    22.9974     7424
    23.2994     7477
    23.6014     7790
    23.9034    14124
    24.2054     9729
    24.5074     7553
    24.8094     7413
    25.1114     7297
    25.4134     6981
    25.7154     7505
    26.0174     7413
    26.3194     7261
    26.6214     7216
    26.9234     7145
    27.2254     7307
    27.5274     7685
    27.8294    13053
    28.1314     9992
    28.4334     8030
    28.7354     7828
    29.0374    24230
    29.3394    11080
    29.6414     7152
    29.9434     7032
    30.2454     6880
    30.5474     7036
    30.8494     6778
    31.1514     6757
    31.4533     6696
    31.7553     6860
    32.0573     6969
    32.3593     6929
    32.6613     7026
    32.9633    13521
    33.2653     7174
    33.5673    11655
    33.8693     6878
    34.1713    10411
    34.4733     6796
    34.7753    10783
    35.0773     7085
    35.3793     6550
    35.6813     6578
    35.9833     6543
    36.2853     6704
    36.5873     8552
    36.8893     6714
    37.1913     6610
    37.4933     7291
    37.7953     7819
    38.0973     6704
    38.3993     6370
    38.7013     6477
    39.0033     6649
    39.3053     6942
    39.6073     6507
    39.9092     6514
    40.2112    10270
    40.5132     6440
    40.8152     6631
    41.1172    12253
    41.4192     6601
    41.7212     6466
    42.0232     6465
    42.3252     6233
    42.6272     6170
    42.9292     6236
    43.2312     6422
    43.5332     7393
    43.8352     6472
    44.1372     6718
    44.4392     7831
    44.7412     6830
    45.0432     6420
    45.3452     6432
    45.6472     6434
    45.9492     7323
    46.2512     7809
    46.5532     6413
    46.8552     6418
    47.1572     6455
    47.4592     8591
    47.7612     7155
    48.0632    20101
    48.3652     7002
    48.6671     7095
    48.9691     7202
    49.2711    13890
    49.5731     6848
    49.8751    19101
    50.1771     6996
    50.4791     7519
    50.7811     7540
    51.0831     6540
    51.3851     6483
    51.6871    15439
    51.9891     6594
    52.2911     6417
    52.5931     6380
    52.8951     6496
    53.1971     6502
    53.4991     6248
    53.8011     6571
    54.1031     6405
    54.4051     6401
    54.7071     6429
    55.0091     6356
    55.3111     6414
    55.6131    10722
    55.9151     7215
    56.2171     8811
    56.5191     9441
    56.8211     7232
    57.1231     6301
    57.4250     6530
    57.7270     9176
    58.0290     8165
    58.3310     6323
    58.6330     7590
    58.9350     9955
    59.2370     8233
    59.5390     6337
    59.8410     6582
    60.1430     9492
    60.4450     7299
    60.7470     6813
    61.0490     7810
    61.3510    10074
    61.6530     7410
    61.9550     6078
    62.2570     6175
    62.5590     6095
    62.8610     6155
    63.1630     7178
    63.4650     7974
    63.7670     6412
    64.0690     6281
    64.3710     6816
    64.6730     5935
    64.9750     6047
    65.2770     6007
    65.5790     6039
    65.8810     6163
    66.1829     6165
    66.4849     6143
    66.7869     5976
    67.0889     6025
    67.3909     6358
    67.6929     5877
    67.9949     5983
    68.2969     6107
    68.5989     6177
    68.9009     6685
    69.2029     8634
    69.5049     7311
    69.8069     7064
    70.1089     6504
    70.4109     6553
    70.7129     6304
    71.0149     6189
    71.3169     6045
    71.6189     6543
    71.9209     6887
    72.2229     5957
    72.5249     6506
    72.8269     6286
    73.1289     7491
    73.4309     6432
    73.7329     6366
    74.0349     7123
    74.3369     6418
    74.6388     6131
    74.9408     5990
    75.2428     5806
    75.5448     6013
    75.8468     6012
    76.1488     5900
    76.4508     6535
    76.7528     6597
    77.0548     6314
    77.3568     6102
    77.6588     6364
    77.9608     5832
    78.2628     5872
    78.5648     5756
    78.8668     6435
    79.1688     6231
    79.4708     6224
    79.7728     6755
    80.0748     6188
    80.3768     6130
    80.6788     6655
    80.9808     6379
    81.2828     6973
    81.5848     6188
    81.8868     5992
    82.1888     6208
    82.4908     6026
    82.7928     6044
    83.0947     5975
    83.3967     5840
    83.6987     5908
    84.0007     6013
    84.3027     6225
    84.6047     6229
    84.9067     5717
    85.2087     5887
    85.5107     5935
    85.8127     5789
    86.1147     6020
    86.4167     6122
    86.7187     6879
    87.0207     6727
    87.3227     6134
    87.6247     5966
    87.9267     6392
    88.2287     6026
    88.5307     6366
    88.8327     6302
    89.1347     6675
    89.4367     6700
    89.7387     6721
    90.0407     6167
    90.3427     5715
    90.6447     5682
    90.9467     6031
    91.2487     5933
    91.5507     5830
    91.8526     6249
    92.1546     6196
    92.4566     6088
    92.7586     5989
    93.0606     5734
    93.3626     5990
    93.6646     6014
    93.9666     5846
    94.2686     6275
    94.5706     6421
    94.8726     6010
    95.1746     5964
    95.4766     6168
    95.7786     5997
    96.0806     5884
    96.3826     5915
    96.6846     5859
    96.9866     6029
    97.2886     5908
    97.5906     6111
    97.8926     5868
    98.1946     6149
    98.4966     6012
    98.7986     5922
    99.1006     6069
    99.4026     5662
    99.7046     5669
    99.9934     5888