File: powder_X-ray_diffraction/variable-temperature_experiments/NaNbO2F2/raw_data/290°C.XY
! Initial file:   D:\ZAKARY_OUAIL\MA_THESE\Deuxième_année_de_thèse\DRX\Affinement_DRX\Fullprof\Thermodiff3-nuit_NaNbO2F2\290°C\NaNbO2F2-Lent_290°C.xrdml
! Initial format:  58
! WAVE (A):      1.54060     1.54060     1.00000
! REM : data have been multiplied by     1.0000
! X_data : 2 Theta (deg.)
! Y_data : Intensity (arb. units)
!     X         Y
!--------------------------------------------------------------------------------
    10.0116     7485
    10.3136     7628
    10.6156     7633
    10.9176     8007
    11.2196    67483
    11.5216     7618
    11.8236     7915
    12.1256     7890
    12.4276     7972
    12.7296     7893
    13.0316     7664
    13.3336     7758
    13.6356     7728
    13.9376     7762
    14.2395     7753
    14.5415     9267
    14.8435     7707
    15.1455     7389
    15.4475     7823
    15.7495     7486
    16.0515     7637
    16.3535     7627
    16.6555     7498
    16.9575     7599
    17.2595     7283
    17.5615     7461
    17.8635     7656
    18.1655     7256
    18.4675     7159
    18.7695     7143
    19.0715     7315
    19.3735     7757
    19.6755    11073
    19.9775     9008
    20.2795     7486
    20.5815     7545
    20.8835     7385
    21.1855     7373
    21.4875     7533
    21.7895     7514
    22.0915     7316
    22.3935     7822
    22.6954     8321
    22.9974     7423
    23.2994     7445
    23.6014     7692
    23.9034    14479
    24.2054     9420
    24.5074     7386
    24.8094     7218
    25.1114     7278
    25.4134     7373
    25.7154     7194
    26.0174     7502
    26.3194     7371
    26.6214     7265
    26.9234     7111
    27.2254     7419
    27.5274     7381
    27.8294    14824
    28.1314     9657
    28.4334     7820
    28.7354     7693
    29.0374    22905
    29.3394    10919
    29.6414     7108
    29.9434     7011
    30.2454     6876
    30.5474     7061
    30.8494     6833
    31.1514     6961
    31.4533     6688
    31.7553     6946
    32.0573     6861
    32.3593     7008
    32.6613     7080
    32.9633    13490
    33.2653     7057
    33.5673    14375
    33.8693     7058
    34.1713    10090
    34.4733     6520
    34.7753    12078
    35.0773     7204
    35.3793     6520
    35.6813     6669
    35.9833     6301
    36.2853     6605
    36.5873     8168
    36.8893     6610
    37.1913     6659
    37.4933     7590
    37.7953     7661
    38.0973     6613
    38.3993     6506
    38.7013     6611
    39.0033     6531
    39.3053     6746
    39.6073     6508
    39.9092     6449
    40.2112     9280
    40.5132     6422
    40.8152     6718
    41.1172    11542
    41.4192     6351
    41.7212     6426
    42.0232     6477
    42.3252     6395
    42.6272     6387
    42.9292     6376
    43.2312     6438
    43.5332     7113
    43.8352     6276
    44.1372     6640
    44.4392     9196
    44.7412     6524
    45.0432     6371
    45.3452     6392
    45.6472     6511
    45.9492     7898
    46.2512     7749
    46.5532     6579
    46.8552     6494
    47.1572     6747
    47.4592     8126
    47.7612     7012
    48.0632    20307
    48.3652     6742
    48.6671     7208
    48.9691     7325
    49.2711    13809
    49.5731     6712
    49.8751    20060
    50.1771     6834
    50.4791     7472
    50.7811     6965
    51.0831     6454
    51.3851     6688
    51.6871    15973
    51.9891     6532
    52.2911     6404
    52.5931     6479
    52.8951     6411
    53.1971     6366
    53.4991     6378
    53.8011     6477
    54.1031     6258
    54.4051     6180
    54.7071     6361
    55.0091     6256
    55.3111     6682
    55.6131    14148
    55.9151     7233
    56.2171     9599
    56.5191    11089
    56.8211     6811
    57.1231     6450
    57.4250     6567
    57.7270     8017
    58.0290     8453
    58.3310     6463
    58.6330     8174
    58.9350    10109
    59.2370     8426
    59.5390     6254
    59.8410     6841
    60.1430     9510
    60.4450     8416
    60.7470     6683
    61.0490     9833
    61.3510     8627
    61.6530     7321
    61.9550     6256
    62.2570     6055
    62.5590     5961
    62.8610     6094
    63.1630     6724
    63.4650     8034
    63.7670     6117
    64.0690     6388
    64.3710     6660
    64.6730     6143
    64.9750     6193
    65.2770     6043
    65.5790     6027
    65.8810     5898
    66.1829     6115
    66.4849     6128
    66.7869     6022
    67.0889     5951
    67.3909     6117
    67.6929     5876
    67.9949     5946
    68.2969     6074
    68.5989     6397
    68.9009     6644
    69.2029     9731
    69.5049     6750
    69.8069     7208
    70.1089     6490
    70.4109     6623
    70.7129     6615
    71.0149     6066
    71.3169     6098
    71.6189     6239
    71.9209     6638
    72.2229     6325
    72.5249     6340
    72.8269     6262
    73.1289     7051
    73.4309     6329
    73.7329     6297
    74.0349     7375
    74.3369     6228
    74.6388     5997
    74.9408     6009
    75.2428     5960
    75.5448     5926
    75.8468     6071
    76.1488     5972
    76.4508     6451
    76.7528     6614
    77.0548     6433
    77.3568     6373
    77.6588     6342
    77.9608     5830
    78.2628     5992
    78.5648     6155
    78.8668     6358
    79.1688     6316
    79.4708     6428
    79.7728     6700
    80.0748     6397
    80.3768     6364
    80.6788     6636
    80.9808     6397
    81.2828     6543
    81.5848     6096
    81.8868     5855
    82.1888     6129
    82.4908     5917
    82.7928     6118
    83.0947     6044
    83.3967     5864
    83.6987     5835
    84.0007     5863
    84.3027     6173
    84.6047     5966
    84.9067     5966
    85.2087     5855
    85.5107     5915
    85.8127     5916
    86.1147     6129
    86.4167     6060
    86.7187     6967
    87.0207     6453
    87.3227     5732
    87.6247     6165
    87.9267     6263
    88.2287     6123
    88.5307     6532
    88.8327     6356
    89.1347     6744
    89.4367     6743
    89.7387     6774
    90.0407     6078
    90.3427     5911
    90.6447     5755
    90.9467     6129
    91.2487     6074
    91.5507     6170
    91.8526     6115
    92.1546     5994
    92.4566     5815
    92.7586     5863
    93.0606     5666
    93.3626     6162
    93.6646     6106
    93.9666     5584
    94.2686     6421
    94.5706     6170
    94.8726     5875
    95.1746     6092
    95.4766     6356
    95.7786     6016
    96.0806     5771
    96.3826     5581
    96.6846     5968
    96.9866     6083
    97.2886     5792
    97.5906     5866
    97.8926     5929
    98.1946     6052
    98.4966     6018
    98.7986     5810
    99.1006     5711
    99.4026     5788
    99.7046     5864
    99.9934     5674