File: powder_X-ray_diffraction/variable-temperature_experiments/NaNbO2F2/raw_data/80°C.XY
! Initial file:   D:\ZAKARY_OUAIL\MA_THESE\Deuxième_année_de_thèse\DRX\Affinement_DRX\Fullprof\Thermodiff3-nuit_NaNbO2F2\80°C\NaNbO2F2-Lent_80°C.xrdml
! Initial format:  58
! WAVE (A):      1.54060     1.54060     1.00000
! REM : data have been multiplied by     1.0000
! X_data : 2 Theta (deg.)
! Y_data : Intensity (arb. units)
!     X         Y
!--------------------------------------------------------------------------------
    10.0116     7951
    10.3136     8119
    10.6156     8103
    10.9176     8473
    11.2196    35128
    11.5216     8087
    11.8236     8334
    12.1256     8567
    12.4276     8490
    12.7296     8493
    13.0316     8219
    13.3336     8196
    13.6356     8262
    13.9376     8215
    14.2395     8106
    14.5415     9843
    14.8435     8053
    15.1455     8026
    15.4475     7868
    15.7495     7922
    16.0515     7995
    16.3535     8023
    16.6555     7980
    16.9575     7924
    17.2595     7447
    17.5615     7530
    17.8635     7525
    18.1655     7308
    18.4675     7319
    18.7695     7322
    19.0715     7361
    19.3735     7824
    19.6755     8704
    19.9775    34904
    20.2795     8016
    20.5815     7683
    20.8835     7570
    21.1855     7576
    21.4875     7587
    21.7895     7481
    22.0915     7658
    22.3935     7755
    22.6954    26708
    22.9974     7693
    23.2994     7684
    23.6014     7768
    23.9034    16317
    24.2054    27635
    24.5074     7581
    24.8094     7399
    25.1114     7384
    25.4134     7411
    25.7154     7417
    26.0174     7387
    26.3194     7319
    26.6214     7221
    26.9234     7071
    27.2254     7402
    27.5274     7558
    27.8294     8511
    28.1314    57594
    28.4334     7821
    28.7354     7689
    29.0374    38780
    29.3394    14275
    29.6414     7389
    29.9434     7038
    30.2454     7029
    30.5474     7046
    30.8494     7031
    31.1514     6901
    31.4533     6847
    31.7553     6935
    32.0573     6756
    32.3593     6771
    32.6613     6622
    32.9633     8615
    33.2653     7651
    33.5673     6961
    33.8693    11662
    34.1713     7284
    34.4733     6906
    34.7753     6803
    35.0773     9600
    35.3793     6780
    35.6813     6503
    35.9833     6471
    36.2853     6748
    36.5873     8418
    36.8893     6681
    37.1913     6633
    37.4933     6539
    37.7953    10583
    38.0973     6788
    38.3993     6587
    38.7013     6553
    39.0033     6590
    39.3053     9902
    39.6073     6516
    39.9092     6403
    40.2112     7068
    40.5132     7910
    40.8152     6503
    41.1172     7522
    41.4192     9767
    41.7212     6368
    42.0232     6373
    42.3252     6415
    42.6272     6378
    42.9292     6232
    43.2312     6426
    43.5332     6373
    43.8352     7076
    44.1372     6434
    44.4392     6379
    44.7412     8605
    45.0432     6658
    45.3452     6347
    45.6472     6275
    45.9492     6658
    46.2512    18266
    46.5532     6610
    46.8552     6567
    47.1572     6568
    47.4592     6715
    47.7612    10157
    48.0632     6804
    48.3652    17916
    48.6671     6857
    48.9691     7052
    49.2711     7477
    49.5731    10527
    49.8751     7018
    50.1771    13385
    50.4791     6567
    50.7811     7804
    51.0831     7764
    51.3851     6445
    51.6871     7038
    51.9891     8147
    52.2911     6363
    52.5931     6451
    52.8951     6707
    53.1971     6075
    53.4991     6266
    53.8011     6470
    54.1031     6360
    54.4051     6367
    54.7071     6155
    55.0091     6364
    55.3111     6379
    55.6131     6984
    55.9151     7638
    56.2171     8534
    56.5191     7573
    56.8211     7578
    57.1231     7340
    57.4250     6541
    57.7270     6592
    58.0290    10960
    58.3310     6799
    58.6330     6438
    58.9350     7482
    59.2370    11985
    59.5390     9659
    59.8410     6609
    60.1430    12480
    60.4450     6421
    60.7470     7002
    61.0490     6952
    61.3510     6745
    61.6530    10453
    61.9550     6517
    62.2570     6186
    62.5590     5996
    62.8610     6136
    63.1630     6126
    63.4650     6238
    63.7670     7400
    64.0690     6271
    64.3710     6064
    64.6730     7104
    64.9750     6123
    65.2770     6018
    65.5790     6082
    65.8810     5980
    66.1829     5820
    66.4849     5880
    66.7869     5947
    67.0889     5916
    67.3909     6024
    67.6929     5939
    67.9949     5987
    68.2969     5929
    68.5989     5946
    68.9009     6076
    69.2029     6496
    69.5049     7450
    69.8069     7858
    70.1089     7021
    70.4109     6011
    70.7129     6230
    71.0149     6457
    71.3169     6024
    71.6189     6206
    71.9209     6297
    72.2229     8543
    72.5249     6541
    72.8269     6512
    73.1289     6067
    73.4309     6010
    73.7329     7387
    74.0349     6512
    74.3369     6138
    74.6388     8044
    74.9408     6213
    75.2428     5892
    75.5448     5877
    75.8468     5844
    76.1488     5946
    76.4508     5923
    76.7528     6115
    77.0548     7390
    77.3568     6730
    77.6588     6123
    77.9608     5749
    78.2628     5854
    78.5648     5804
    78.8668     6107
    79.1688     6074
    79.4708     6981
    79.7728     6378
    80.0748     6388
    80.3768     6091
    80.6788     6132
    80.9808     6787
    81.2828     6707
    81.5848     6405
    81.8868     6185
    82.1888     5869
    82.4908     5986
    82.7928     6444
    83.0947     6422
    83.3967     6198
    83.6987     5833
    84.0007     5759
    84.3027     5660
    84.6047     5896
    84.9067     5830
    85.2087     5974
    85.5107     5964
    85.8127     5894
    86.1147     5904
    86.4167     5781
    86.7187     5773
    87.0207     6156
    87.3227     6163
    87.6247     6262
    87.9267     6032
    88.2287     5901
    88.5307     6591
    88.8327     6666
    89.1347     6432
    89.4367     6055
    89.7387     6240
    90.0407     6299
    90.3427     5851
    90.6447     5628
    90.9467     5774
    91.2487     5636
    91.5507     5894
    91.8526     6081
    92.1546     6431
    92.4566     6917
    92.7586     6509
    93.0606     5941
    93.3626     5943
    93.6646     5717
    93.9666     5685
    94.2686     6431
    94.5706     5967
    94.8726     5905
    95.1746     6357
    95.4766     6198
    95.7786     6320
    96.0806     6155
    96.3826     5799
    96.6846     5830
    96.9866     5834
    97.2886     5878
    97.5906     6296
    97.8926     5866
    98.1946     5622
    98.4966     5689
    98.7986     5970
    99.1006     5906
    99.4026     5843
    99.7046     5719
    99.9934     5796